* Measurement data measured by REW V5.31.1
* Source: Microphone (USB Sound Device        ), MICROPHONE (Master Volume), R, volume: 0.850
* Format: 256k Log Swept Sine, 1 sweep at -20.0 dBFS with no timing reference
* Dated: Jul 16, 2024 12:21:55 AM
* REW Settings:
*  C-weighting compensation: Off
*  Target level: 75.0 dB
* Note: 
* Measurement: R HYDRO DDUU Jul 16
* Smoothing: None
* Frequency Step: 1/48 octave
* Start Frequency: 20.300 Hz
*
* Freq(Hz) SPL(dB) Phase(degrees)
20.299999 134.421 -132.9476
20.600000 134.490 -133.2868
20.900000 134.555 -133.5873
21.200001 134.620 -133.8946
21.400000 134.663 -134.1057
21.799999 134.752 -134.5359
22.000000 134.796 -134.7505
22.400000 134.884 -135.1700
22.700001 134.951 -135.4771
23.000000 135.016 -135.7839
23.299999 135.081 -136.0962
23.600000 135.142 -136.4144
24.000000 135.219 -136.8417
24.299999 135.274 -137.1562
24.700001 135.345 -137.5601
25.000000 135.398 -137.8517
25.400000 135.470 -138.2313
25.799999 135.544 -138.6056
26.200001 135.617 -138.9722
26.500000 135.670 -139.2377
26.900000 135.740 -139.5763
27.200001 135.792 -139.8219
27.600000 135.858 -140.1481
28.000000 135.922 -140.4873
28.500000 135.996 -140.9472
29.000000 136.068 -141.4549
29.500000 136.141 -142.0042
30.000000 136.221 -142.5620
30.400000 136.289 -142.9725
30.700001 136.341 -143.2365
31.100000 136.412 -143.5144
31.500000 136.482 -143.7206
32.000000 136.560 -143.9460
32.500000 136.619 -144.2361
33.000000 136.653 -144.6525
33.500000 136.672 -145.1812
34.000000 136.702 -145.7723
34.500000 136.761 -146.3826
35.000000 136.847 -146.9738
35.500000 136.943 -147.4837
36.000000 137.024 -147.8525
36.500000 137.082 -148.0843
37.000000 137.120 -148.2782
37.500000 137.148 -148.5607
38.200001 137.184 -149.2027
38.700001 137.220 -149.7600
39.500000 137.309 -150.5583
40.000000 137.373 -150.9384
40.599998 137.442 -151.2991
41.200001 137.490 -151.6266
41.799999 137.524 -152.0027
42.500000 137.563 -152.5625
43.099998 137.604 -153.1037
43.700001 137.652 -153.6203
44.400002 137.713 -154.1539
45.000000 137.758 -154.5745
45.500000 137.788 -154.9160
46.200001 137.822 -155.3918
46.799999 137.853 -155.8172
47.500000 137.896 -156.3570
48.200001 137.941 -156.9142
48.700001 137.973 -157.2900
49.400002 138.017 -157.7705
50.000000 138.053 -158.1618
50.799999 138.096 -158.6927
51.500000 138.128 -159.1812
52.200001 138.156 -159.6788
53.000000 138.188 -160.2052
53.799999 138.228 -160.6908
54.500000 138.263 -161.1551
55.200001 138.286 -161.6535
56.000000 138.301 -162.1939
57.000000 138.330 -162.8529
58.000000 138.371 -163.5005
59.000000 138.411 -164.0819
60.000000 138.435 -164.6571
60.799999 138.448 -165.1359
61.500000 138.463 -165.6081
62.200001 138.478 -166.1007
63.000000 138.494 -166.5876
64.000000 138.514 -167.1116
65.000000 138.531 -167.6953
66.000000 138.546 -168.3163
67.000000 138.562 -168.8937
68.000000 138.576 -169.4172
69.000000 138.588 -169.9979
70.000000 138.594 -170.5597
71.000000 138.606 -171.0527
72.000000 138.604 -171.5696
73.000000 138.599 -172.0977
74.000000 138.606 -172.6743
75.000000 138.615 -173.1837
76.199997 138.615 -173.7967
77.500000 138.618 -174.4832
78.800003 138.612 -175.2221
80.000000 138.597 -175.6222
81.199997 138.586 -176.3905
82.500000 138.571 -176.9044
83.800003 138.585 -177.4934
85.000000 138.563 -178.0250
86.199997 138.554 -178.5836
87.500000 138.539 -179.1509
88.500000 138.522 -179.5804
90.000000 138.499 179.8018
91.199997 138.483 179.2784
92.500000 138.464 178.7326
93.800003 138.438 178.2480
95.000000 138.413 177.7431
96.199997 138.386 177.2589
97.500000 138.363 176.8015
98.800003 138.340 176.3057
100.000000 138.308 175.8215
101.500000 138.275 175.3291
103.000000 138.241 174.7834
104.400002 138.199 174.3282
106.000000 138.161 173.7349
107.500000 138.117 173.2593
109.000000 138.078 172.8471
110.599998 138.045 172.2279
112.000000 137.996 171.8926
113.800003 137.935 171.3282
115.000000 137.905 171.0168
117.199997 137.826 170.3788
118.000000 137.804 170.1652
120.599998 137.720 169.4990
122.000000 137.669 169.1299
124.099998 137.597 168.6302
125.000000 137.572 168.4072
126.500000 137.515 168.0217
128.000000 137.469 167.6594
131.500000 137.340 166.9564
132.000000 137.322 166.8652
134.000000 137.249 166.4828
136.000000 137.172 166.1108
138.000000 137.100 165.7281
140.000000 137.029 165.4164
143.000000 136.906 164.8897
145.000000 136.834 164.6223
147.500000 136.738 164.2893
150.000000 136.639 163.9212
152.500000 136.542 163.6544
155.000000 136.442 163.3924
157.500000 136.350 163.1132
160.000000 136.244 162.9429
162.500000 136.149 162.6816
165.000000 136.043 162.4921
167.500000 135.955 162.3335
170.000000 135.860 162.2029
172.500000 135.763 162.1270
175.000000 135.664 162.0354
177.500000 135.568 161.9631
180.000000 135.475 161.9284
182.500000 135.374 161.8998
185.000000 135.281 161.7650
187.500000 135.200 161.9598
190.000000 135.080 161.9471
192.500000 135.007 161.8311
195.000000 134.912 162.0447
197.500000 134.821 162.0326
200.000000 134.769 162.2353
203.000000 134.637 161.8923
206.000000 134.457 162.5834
209.000000 134.494 163.1840
212.000000 134.389 162.3569
214.000000 134.252 163.1688
218.000000 134.131 163.3106
220.000000 134.100 163.3974
224.000000 133.980 163.8896
227.000000 133.895 164.0697
230.000000 133.811 164.3564
233.000000 133.728 164.6483
236.000000 133.654 164.9927
240.000000 133.545 165.4086
243.000000 133.481 165.7511
247.000000 133.378 166.1786
250.000000 133.326 166.5923
254.000000 133.224 167.0200
258.000000 133.132 167.6059
262.000000 133.053 167.9919
265.000000 133.017 168.6433
269.000000 132.934 169.2228
272.000000 132.890 169.3024
276.000000 132.847 170.2000
280.000000 132.747 170.5745
285.000000 132.690 171.1890
290.000000 132.631 172.0421
295.000000 132.565 172.7588
300.000000 132.520 173.4317
304.000000 132.484 174.0181
307.000000 132.458 174.4393
311.000000 132.430 175.0128
315.000000 132.389 175.4583
320.000000 132.362 176.1763
325.000000 132.326 176.9042
330.000000 132.302 177.4834
335.000000 132.282 178.1443
340.000000 132.260 178.7799
345.000000 132.242 179.4334
350.000000 132.233 -179.9712
355.000000 132.216 -179.3958
360.000000 132.205 -178.7947
365.000000 132.194 -178.2462
370.000000 132.199 -177.6906
375.000000 132.194 -177.1223
382.000000 132.192 -176.2822
387.000000 132.196 -175.8678
395.000000 132.194 -175.0395
400.000000 132.205 -174.5128
406.000000 132.209 -173.9074
412.000000 132.206 -173.3771
418.000000 132.219 -172.7384
425.000000 132.232 -172.1686
431.000000 132.243 -171.6028
437.000000 132.264 -171.0732
444.000000 132.267 -170.4775
450.000000 132.273 -169.9613
455.000000 132.284 -169.5483
462.000000 132.322 -169.0650
468.000000 132.340 -168.6931
475.000000 132.326 -167.9400
482.000000 132.374 -167.3998
487.000000 132.367 -166.9553
494.000000 132.413 -166.7120
500.000000 132.421 -166.1813
508.000000 132.415 -165.6372
515.000000 132.446 -165.1350
522.000000 132.488 -164.5381
530.000000 132.474 -164.0920
538.000000 132.534 -163.4391
545.000000 132.525 -163.3011
552.000000 132.545 -162.7274
560.000000 132.596 -162.1047
570.000000 132.630 -161.4130
580.000000 132.655 -160.9238
590.000000 132.675 -160.2506
600.000000 132.716 -159.6913
608.000000 132.721 -159.2106
615.000000 132.750 -158.7672
622.000000 132.765 -158.2176
630.000000 132.812 -157.7380
640.000000 132.855 -157.1789
650.000000 132.871 -156.6107
660.000000 132.917 -155.9430
670.000000 132.967 -155.4117
680.000000 132.995 -154.8216
690.000000 133.037 -154.2930
700.000000 133.082 -153.6758
710.000000 133.110 -153.0572
720.000000 133.158 -152.4733
730.000000 133.201 -151.8913
740.000000 133.255 -151.3440
750.000000 133.312 -150.8118
762.000000 133.371 -150.1021
775.000000 133.435 -149.3115
788.000000 133.502 -148.6165
800.000000 133.598 -147.8033
812.000000 133.622 -147.4349
825.000000 133.745 -146.6418
838.000000 133.821 -145.8911
850.000000 133.905 -145.3522
862.000000 134.006 -144.6736
875.000000 134.093 -144.0950
885.000000 134.172 -143.7357
900.000000 134.291 -143.1129
912.000000 134.392 -142.6068
925.000000 134.491 -142.2234
938.000000 134.583 -141.9893
950.000000 134.654 -141.6705
962.000000 134.698 -141.2028
975.000000 134.780 -140.6898
988.000000 134.854 -139.9037
1000.000000 134.946 -139.6180
1015.000000 135.089 -138.8479
1030.000000 135.238 -138.2395
1044.000000 135.372 -137.8623
1060.000000 135.528 -137.4627
1075.000000 135.673 -137.1631
1090.000000 135.803 -136.8619
1106.000000 135.949 -136.6492
1120.000000 136.066 -136.5046
1138.000000 136.241 -136.2413
1150.000000 136.348 -136.2008
1172.000000 136.534 -136.1810
1180.000000 136.609 -136.1748
1206.000000 136.795 -136.2243
1220.000000 136.893 -136.2762
1241.000000 137.032 -136.3086
1250.000000 137.096 -136.3175
1265.000000 137.191 -136.4035
1280.000000 137.292 -136.4306
1315.000000 137.494 -136.6134
1320.000000 137.525 -136.6244
1340.000000 137.637 -136.7394
1360.000000 137.737 -136.8458
1380.000000 137.839 -136.9305
1400.000000 137.940 -137.0482
1430.000000 138.089 -137.1947
1450.000000 138.171 -137.2976
1475.000000 138.289 -137.4343
1500.000000 138.393 -137.4944
1525.000000 138.507 -137.6176
1550.000000 138.607 -137.6930
1575.000000 138.703 -137.7856
1600.000000 138.806 -137.9083
1625.000000 138.904 -137.9865
1650.000000 139.006 -138.0231
1675.000000 139.109 -138.0798
1700.000000 139.203 -138.1468
1725.000000 139.304 -138.2668
1750.000000 139.406 -138.3160
1775.000000 139.507 -138.4120
1800.000000 139.609 -138.5072
1825.000000 139.704 -138.5951
1850.000000 139.807 -138.6715
1875.000000 139.910 -138.7957
1900.000000 140.008 -138.9543
1925.000000 140.108 -139.0245
1950.000000 140.215 -139.1910
1975.000000 140.320 -139.3518
2000.000000 140.398 -139.3945
2030.000000 140.550 -139.7501
2060.000000 140.669 -139.9671
2090.000000 140.796 -140.2123
2120.000000 140.924 -140.5322
2140.000000 141.010 -140.7536
2180.000000 141.175 -141.1859
2200.000000 141.263 -141.4406
2240.000000 141.435 -141.9390
2270.000000 141.553 -142.3765
2300.000000 141.680 -142.8137
2330.000000 141.804 -143.3507
2360.000000 141.927 -143.8980
2400.000000 142.081 -144.6633
2430.000000 142.198 -145.2635
2470.000000 142.345 -146.1453
2500.000000 142.455 -146.8367
2540.000000 142.589 -147.8517
2580.000000 142.726 -148.8873
2620.000000 142.839 -149.9542
2650.000000 142.924 -150.7961
2690.000000 143.021 -151.9273
2720.000000 143.091 -152.8004
2760.000000 143.177 -153.9537
2800.000000 143.246 -155.1491
2850.000000 143.323 -156.6604
2900.000000 143.383 -158.1960
2950.000000 143.431 -159.6749
3000.000000 143.475 -160.9895
3040.000000 143.472 -162.3661
3070.000000 143.476 -163.2445
3110.000000 143.476 -164.3952
3150.000000 143.468 -165.5030
3200.000000 143.445 -166.8578
3250.000000 143.419 -168.2245
3300.000000 143.373 -169.5022
3350.000000 143.327 -170.7226
3400.000000 143.272 -171.9127
3450.000000 143.213 -173.0220
3500.000000 143.137 -174.0755
3550.000000 143.065 -175.0932
3600.000000 142.994 -176.0700
3650.000000 142.912 -176.9645
3700.000000 142.832 -177.8015
3750.000000 142.743 -178.6343
3820.000000 142.626 -179.7172
3870.000000 142.535 179.5764
3950.000000 142.400 178.5255
4000.000000 142.310 177.7502
4060.000000 142.198 177.2154
4120.000000 142.089 176.5616
4180.000000 141.985 175.9772
4250.000000 141.859 175.3011
4310.000000 141.751 174.7124
4370.000000 141.644 174.2448
4440.000000 141.516 173.7256
4500.000000 141.411 173.2999
4550.000000 141.316 172.9733
4620.000000 141.180 172.5369
4680.000000 141.073 172.1968
4750.000000 140.951 171.8400
4820.000000 140.797 171.5364
4870.000000 140.706 171.3214
4940.000000 140.571 171.0854
5000.000000 140.476 170.9275
5080.000000 140.286 170.7235
5150.000000 140.139 170.6370
5220.000000 139.996 170.5942
5300.000000 139.818 170.6071
5380.000000 139.659 170.6902
5450.000000 139.500 170.8662
5520.000000 139.348 171.0442
5600.000000 139.179 171.3850
5700.000000 138.964 171.8859
5800.000000 138.752 172.6526
5900.000000 138.549 173.4487
6000.000000 138.369 174.5413
6080.000000 138.227 175.4733
6150.000000 138.110 176.2744
6220.000000 138.033 177.1921
6300.000000 137.940 178.2500
6400.000000 137.851 179.5354
6500.000000 137.783 -179.1981
6600.000000 137.702 -177.9170
6700.000000 137.665 -176.6297
6800.000000 137.630 -175.2903
6900.000000 137.619 -173.9256
7000.000000 137.635 -172.6656
7100.000000 137.658 -171.2418
7200.000000 137.732 -169.9074
7300.000000 137.831 -168.7645
7400.000000 137.966 -167.6951
7500.000000 138.106 -166.6362
7620.000000 138.331 -165.7030
7750.000000 138.622 -165.1532
7880.000000 138.939 -165.0178
8000.000000 139.284 -165.2351
8120.000000 139.638 -166.4099
8250.000000 140.012 -168.3098
8380.000000 140.363 -171.0851
8500.000000 140.593 -174.4810
8620.000000 140.719 -178.6788
8750.000000 140.672 176.2683
8850.000000 140.504 172.4178
9000.000000 140.042 167.0701
9120.000000 139.499 163.3968
9250.000000 138.815 160.4655
9380.000000 138.110 158.3044
9500.000000 137.418 157.2140
9620.000000 136.767 156.8272
9750.000000 136.089 157.1667
9880.000000 135.450 158.0759
10000.000000 134.888 159.1325
10150.000000 134.332 161.0515
10300.000000 133.794 163.3983
10440.000000 133.382 165.5453
10600.000000 132.988 168.4314
10750.000000 132.711 171.0381
10900.000000 132.451 173.8580
11060.000000 132.235 176.7787
11200.000000 132.092 179.1276
11380.000000 131.887 -177.8044
11500.000000 131.752 -175.6951
11720.000000 131.610 -171.2334
11800.000000 131.544 -169.4805
12060.000000 131.597 -162.9449
12200.000000 131.785 -159.3284
12410.000000 132.258 -154.8500
12500.000000 132.461 -153.1610
12650.000000 132.918 -150.7479
12800.000000 133.387 -148.4872
13150.000000 135.228 -145.1638
13200.000000 135.571 -145.3908
13400.000000 137.045 -148.7819
13600.000000 138.429 -157.7076
13800.000000 139.115 -172.4566
14000.000000 138.533 171.5256
14300.000000 136.105 156.6059
14500.000000 134.411 152.4928
14750.000000 132.556 151.3667
15000.000000 131.037 152.6911
15250.000000 129.856 154.4879
15500.000000 128.858 157.3719
15750.000000 128.143 159.3525
16000.000000 127.531 161.3248
16250.000000 127.043 162.2362
16500.000000 126.539 162.2637
16750.000000 125.937 161.3979
17000.000000 125.219 160.9955
17250.000000 124.343 159.9529
17500.000000 123.354 160.1998
17750.000000 122.117 161.8525
18000.000000 121.224 164.7466
18250.000000 120.144 168.6053
18500.000000 119.328 170.2999
18750.000000 118.585 171.2028
19000.000000 117.521 167.8553
19250.000000 113.729 168.2217
19500.000000 111.177 -175.2150
19750.000000 109.802 -155.3083
