* Measurement data measured by REW V5.31.1
* Source: Microphone (USB Sound Device        ), MICROPHONE (Master Volume), R, volume: 0.850
* Format: 256k Log Swept Sine, 1 sweep at -20.0 dBFS with no timing reference
* Dated: Jul 16, 2024 12:07:04 AM
* REW Settings:
*  C-weighting compensation: Off
*  Target level: 75.0 dB
* Note: 
* Measurement: R HYDRO UUDD Jul 16
* Smoothing: None
* Frequency Step: 1/48 octave
* Start Frequency: 20.300 Hz
*
* Freq(Hz) SPL(dB) Phase(degrees)
20.299999 137.686 -145.0089
20.600000 137.734 -145.3726
20.900000 137.773 -145.7103
21.200001 137.811 -146.0643
21.400000 137.837 -146.3139
21.799999 137.890 -146.8433
22.000000 137.917 -147.1189
22.400000 137.972 -147.6746
22.700001 138.014 -148.0792
23.000000 138.056 -148.4626
23.299999 138.098 -148.8258
23.600000 138.141 -149.1760
24.000000 138.199 -149.6379
24.299999 138.240 -149.9889
24.700001 138.291 -150.4615
25.000000 138.326 -150.8113
25.400000 138.371 -151.2612
25.799999 138.416 -151.6940
26.200001 138.462 -152.1265
26.500000 138.497 -152.4613
26.900000 138.542 -152.9225
27.200001 138.572 -153.2699
27.600000 138.608 -153.7163
28.000000 138.643 -154.1321
28.500000 138.692 -154.6294
29.000000 138.748 -155.1547
29.500000 138.803 -155.7278
30.000000 138.850 -156.3021
30.400000 138.882 -156.7175
30.700001 138.905 -156.9935
31.100000 138.938 -157.3276
31.500000 138.974 -157.6526
32.000000 139.019 -158.0923
32.500000 139.062 -158.5917
33.000000 139.097 -159.1349
33.500000 139.128 -159.6840
34.000000 139.157 -160.1962
34.500000 139.191 -160.6515
35.000000 139.230 -161.0703
35.500000 139.271 -161.5011
36.000000 139.306 -161.9713
36.500000 139.330 -162.4608
37.000000 139.348 -162.9328
37.500000 139.373 -163.3851
38.200001 139.420 -164.0410
38.700001 139.452 -164.5260
39.500000 139.488 -165.2068
40.000000 139.508 -165.5600
40.599998 139.534 -165.9907
41.200001 139.562 -166.4874
41.799999 139.587 -167.0197
42.500000 139.616 -167.6332
43.099998 139.638 -168.1492
43.700001 139.654 -168.6440
44.400002 139.673 -169.1873
45.000000 139.693 -169.6633
45.500000 139.710 -170.0798
46.200001 139.728 -170.6423
46.799999 139.744 -171.0847
47.500000 139.764 -171.6211
48.200001 139.775 -172.1771
48.700001 139.781 -172.5381
49.400002 139.800 -173.0158
50.000000 139.820 -173.4763
50.799999 139.827 -174.1071
51.500000 139.824 -174.5629
52.200001 139.831 -175.0074
53.000000 139.845 -175.6050
53.799999 139.857 -176.2290
54.500000 139.865 -176.7668
55.200001 139.864 -177.2555
56.000000 139.862 -177.7050
57.000000 139.873 -178.3266
58.000000 139.870 -179.0751
59.000000 139.868 -179.7525
60.000000 139.872 179.5662
60.799999 139.866 179.0693
61.500000 139.863 178.6766
62.200001 139.863 178.2438
63.000000 139.855 177.7007
64.000000 139.841 177.1058
65.000000 139.840 176.5062
66.000000 139.824 175.8806
67.000000 139.810 175.3363
68.000000 139.802 174.7316
69.000000 139.784 174.1744
70.000000 139.765 173.6183
71.000000 139.744 173.0319
72.000000 139.732 172.4318
73.000000 139.715 171.9230
74.000000 139.697 171.4919
75.000000 139.669 170.9779
76.199997 139.641 170.2780
77.500000 139.602 169.5425
78.800003 139.588 169.0375
80.000000 139.563 168.3306
81.199997 139.525 167.7773
82.500000 139.493 167.1252
83.800003 139.453 166.5406
85.000000 139.420 165.9909
86.199997 139.382 165.4606
87.500000 139.343 164.8914
88.500000 139.315 164.4209
90.000000 139.264 163.7722
91.199997 139.230 163.2898
92.500000 139.184 162.7127
93.800003 139.140 162.1358
95.000000 139.097 161.6403
96.199997 139.061 161.3037
97.500000 139.071 160.8276
98.800003 139.077 159.9692
100.000000 139.019 159.0606
101.500000 138.885 158.3591
103.000000 138.808 158.1245
104.400002 138.713 157.6288
106.000000 138.514 157.2529
107.500000 138.422 157.2539
109.000000 138.516 156.8202
110.599998 138.574 156.0235
112.000000 138.457 155.3348
113.800003 138.178 155.9044
115.000000 138.233 155.8954
117.199997 138.371 153.9243
118.000000 138.186 153.6549
120.599998 137.988 153.5953
122.000000 138.094 152.4984
124.099998 137.866 153.1644
125.000000 137.817 152.5085
126.500000 137.854 152.0437
128.000000 137.695 151.3124
131.500000 137.618 151.3721
132.000000 137.606 150.9323
134.000000 137.443 150.0837
136.000000 137.295 150.1370
138.000000 137.265 149.4712
140.000000 137.184 149.0643
143.000000 137.007 148.5984
145.000000 136.909 148.3348
147.500000 136.822 147.7536
150.000000 136.677 147.5136
152.500000 136.559 147.2425
155.000000 136.447 146.6608
157.500000 136.323 146.6215
160.000000 136.209 146.2346
162.500000 136.099 145.9449
165.000000 135.968 145.7699
167.500000 135.859 145.5323
170.000000 135.742 145.3738
172.500000 135.630 145.1738
175.000000 135.503 145.0801
177.500000 135.382 144.8716
180.000000 135.287 144.7284
182.500000 135.162 144.6324
185.000000 135.055 144.7044
187.500000 134.945 144.4108
190.000000 134.828 144.6594
192.500000 134.709 144.5796
195.000000 134.583 144.3854
197.500000 134.491 144.4054
200.000000 134.435 144.3858
203.000000 134.256 144.7483
206.000000 134.036 144.9426
209.000000 134.003 144.3442
212.000000 133.882 144.5972
214.000000 133.814 144.6522
218.000000 133.665 144.8710
220.000000 133.577 145.3100
224.000000 133.468 145.5579
227.000000 133.329 145.3109
230.000000 133.162 145.6052
233.000000 133.059 146.0765
236.000000 132.985 146.1411
240.000000 132.858 146.5279
243.000000 132.731 146.5382
247.000000 132.619 146.8228
250.000000 132.506 147.1741
254.000000 132.365 147.5742
258.000000 132.238 147.9760
262.000000 132.134 148.4002
265.000000 132.040 148.7998
269.000000 131.924 149.2153
272.000000 131.833 149.5593
276.000000 131.747 149.9397
280.000000 131.647 150.4598
285.000000 131.517 151.0180
290.000000 131.397 151.7509
295.000000 131.281 152.2144
300.000000 131.150 152.9043
304.000000 131.077 153.3138
307.000000 131.005 153.8264
311.000000 130.945 154.1514
315.000000 130.864 154.9132
320.000000 130.773 155.4899
325.000000 130.684 156.0772
330.000000 130.612 156.8624
335.000000 130.524 157.5276
340.000000 130.451 158.1420
345.000000 130.393 158.7651
350.000000 130.315 159.2869
355.000000 130.245 160.0753
360.000000 130.198 160.8113
365.000000 130.136 161.3578
370.000000 130.067 162.0508
375.000000 130.030 162.4670
382.000000 129.956 163.6261
387.000000 129.918 164.1672
395.000000 129.837 165.0207
400.000000 129.805 165.7740
406.000000 129.781 166.4499
412.000000 129.709 167.2070
418.000000 129.658 167.8041
425.000000 129.627 168.7314
431.000000 129.584 169.2617
437.000000 129.567 170.0325
444.000000 129.535 170.6647
450.000000 129.498 171.4758
455.000000 129.465 171.9896
462.000000 129.460 172.7278
468.000000 129.431 173.4677
475.000000 129.437 173.9587
482.000000 129.411 174.8386
487.000000 129.385 175.1541
494.000000 129.333 176.0605
500.000000 129.327 176.9301
508.000000 129.357 177.3973
515.000000 129.286 178.0251
522.000000 129.267 178.4741
530.000000 129.277 179.5536
538.000000 129.276 -179.8026
545.000000 129.256 -178.9757
552.000000 129.280 -178.2518
560.000000 129.271 -177.7470
570.000000 129.256 -176.7809
580.000000 129.283 -175.7567
590.000000 129.269 -174.9756
600.000000 129.264 -173.9923
608.000000 129.295 -173.3018
615.000000 129.289 -172.7061
622.000000 129.302 -172.0066
630.000000 129.336 -171.3385
640.000000 129.321 -170.5778
650.000000 129.338 -169.8243
660.000000 129.368 -168.9687
670.000000 129.377 -168.2248
680.000000 129.426 -167.2870
690.000000 129.434 -166.6663
700.000000 129.461 -165.7737
710.000000 129.468 -164.9621
720.000000 129.499 -164.0977
730.000000 129.549 -163.4287
740.000000 129.612 -162.6059
750.000000 129.638 -162.0032
762.000000 129.716 -161.0505
775.000000 129.755 -160.0576
788.000000 129.820 -159.0737
800.000000 129.883 -158.2130
812.000000 129.936 -157.5921
825.000000 130.041 -156.4473
838.000000 130.157 -155.9016
850.000000 130.204 -155.0989
862.000000 130.274 -154.4071
875.000000 130.362 -153.6104
885.000000 130.432 -153.0107
900.000000 130.552 -152.1620
912.000000 130.655 -151.6400
925.000000 130.746 -151.0396
938.000000 130.849 -150.6431
950.000000 130.931 -150.1980
962.000000 131.006 -149.7394
975.000000 131.070 -149.2786
988.000000 131.145 -148.8923
1000.000000 131.221 -148.4220
1015.000000 131.288 -147.5218
1030.000000 131.426 -146.9604
1044.000000 131.534 -146.1428
1060.000000 131.676 -145.5565
1075.000000 131.807 -145.0013
1090.000000 131.935 -144.4719
1106.000000 132.091 -144.1527
1120.000000 132.208 -143.8584
1138.000000 132.373 -143.4223
1150.000000 132.480 -143.2141
1172.000000 132.687 -143.0976
1180.000000 132.749 -143.0212
1206.000000 132.936 -143.0577
1220.000000 133.032 -142.9639
1241.000000 133.161 -142.8627
1250.000000 133.226 -142.9030
1265.000000 133.324 -142.8147
1280.000000 133.418 -142.7625
1315.000000 133.621 -142.6684
1320.000000 133.656 -142.6893
1340.000000 133.756 -142.6886
1360.000000 133.854 -142.7353
1380.000000 133.963 -142.7680
1400.000000 134.056 -142.7222
1430.000000 134.202 -142.7650
1450.000000 134.294 -142.7774
1475.000000 134.400 -142.7545
1500.000000 134.502 -142.6823
1525.000000 134.606 -142.7807
1550.000000 134.720 -142.7006
1575.000000 134.811 -142.7022
1600.000000 134.915 -142.7080
1625.000000 135.010 -142.6766
1650.000000 135.113 -142.6749
1675.000000 135.208 -142.6530
1700.000000 135.310 -142.6280
1725.000000 135.410 -142.6479
1750.000000 135.507 -142.5823
1775.000000 135.608 -142.6005
1800.000000 135.711 -142.6078
1825.000000 135.807 -142.6017
1850.000000 135.913 -142.6541
1875.000000 136.010 -142.6831
1900.000000 136.115 -142.7161
1925.000000 136.228 -142.7391
1950.000000 136.335 -142.8389
1975.000000 136.431 -142.9156
2000.000000 136.533 -142.9646
2030.000000 136.660 -143.1196
2060.000000 136.803 -143.2839
2090.000000 136.924 -143.4528
2120.000000 137.068 -143.6763
2140.000000 137.152 -143.8756
2180.000000 137.331 -144.1819
2200.000000 137.409 -144.3562
2240.000000 137.588 -144.8615
2270.000000 137.715 -145.2231
2300.000000 137.847 -145.6279
2330.000000 137.981 -146.0995
2360.000000 138.111 -146.5577
2400.000000 138.275 -147.2711
2430.000000 138.400 -147.8370
2470.000000 138.555 -148.7386
2500.000000 138.675 -149.3959
2540.000000 138.811 -150.3678
2580.000000 138.955 -151.3892
2620.000000 139.083 -152.4509
2650.000000 139.166 -153.3058
2690.000000 139.281 -154.4137
2720.000000 139.350 -155.2697
2760.000000 139.447 -156.4868
2800.000000 139.524 -157.6776
2850.000000 139.606 -159.2063
2900.000000 139.664 -160.7484
2950.000000 139.718 -162.3087
3000.000000 139.748 -163.8759
3040.000000 139.774 -165.0914
3070.000000 139.773 -165.9753
3110.000000 139.772 -167.1588
3150.000000 139.759 -168.3448
3200.000000 139.734 -169.7311
3250.000000 139.696 -171.1147
3300.000000 139.652 -172.4369
3350.000000 139.598 -173.7155
3400.000000 139.532 -174.9232
3450.000000 139.461 -176.0559
3500.000000 139.382 -177.1625
3550.000000 139.298 -178.2350
3600.000000 139.215 -179.1977
3650.000000 139.125 179.8881
3700.000000 139.031 179.0300
3750.000000 138.932 178.2400
3820.000000 138.794 177.1079
3870.000000 138.700 176.4232
3950.000000 138.537 175.3742
4000.000000 138.428 174.8334
4060.000000 138.325 174.1302
4120.000000 138.198 173.5169
4180.000000 138.069 172.9557
4250.000000 137.937 172.3739
4310.000000 137.816 171.7957
4370.000000 137.708 171.4033
4440.000000 137.557 170.9056
4500.000000 137.432 170.5350
4550.000000 137.341 170.2448
4620.000000 137.196 169.8522
4680.000000 137.075 169.6009
4750.000000 136.911 169.3255
4820.000000 136.777 169.0361
4870.000000 136.666 168.8225
4940.000000 136.521 168.6409
5000.000000 136.389 168.6647
5080.000000 136.214 168.4561
5150.000000 136.046 168.4455
5220.000000 135.884 168.5099
5300.000000 135.703 168.5836
5380.000000 135.529 168.8214
5450.000000 135.356 168.8878
5520.000000 135.200 169.3467
5600.000000 135.005 169.7264
5700.000000 134.760 170.3995
5800.000000 134.532 171.2950
5900.000000 134.304 172.3218
6000.000000 134.090 173.5364
6080.000000 133.969 174.6991
6150.000000 133.865 175.8544
6220.000000 133.773 176.9366
6300.000000 133.674 178.1177
6400.000000 133.597 179.6575
6500.000000 133.530 -179.0280
6600.000000 133.479 -177.6555
6700.000000 133.414 -176.2079
6800.000000 133.391 -174.7649
6900.000000 133.374 -173.2803
7000.000000 133.387 -171.7459
7100.000000 133.415 -170.3546
7200.000000 133.468 -168.7466
7300.000000 133.551 -167.3132
7400.000000 133.670 -165.8479
7500.000000 133.829 -164.8752
7620.000000 134.044 -163.4994
7750.000000 134.312 -162.5055
7880.000000 134.639 -161.7459
8000.000000 134.988 -161.6388
8120.000000 135.395 -162.0974
8250.000000 135.842 -163.2525
8380.000000 136.278 -165.5284
8500.000000 136.647 -168.4041
8620.000000 136.899 -172.2265
8750.000000 137.030 -177.1912
8850.000000 137.003 178.6940
9000.000000 136.686 172.6069
9120.000000 136.228 168.1785
9250.000000 135.632 164.2399
9380.000000 134.915 161.6124
9500.000000 134.211 159.9773
9620.000000 133.530 159.0468
9750.000000 132.840 159.0777
9880.000000 132.180 159.3755
10000.000000 131.643 160.5125
10150.000000 130.995 162.0496
10300.000000 130.463 164.1533
10440.000000 130.057 166.3121
10600.000000 129.664 169.1837
10750.000000 129.317 171.7261
10900.000000 129.109 174.4781
11060.000000 128.893 177.1436
11200.000000 128.809 179.5238
11380.000000 128.631 -178.0743
11500.000000 128.475 -176.0941
11720.000000 128.309 -172.6967
11800.000000 128.292 -171.2870
12060.000000 128.197 -166.0786
12200.000000 128.269 -162.4802
12410.000000 128.569 -158.6731
12500.000000 128.771 -156.8208
12650.000000 129.087 -154.5933
12800.000000 129.414 -152.1377
13150.000000 130.873 -147.7865
13200.000000 131.191 -147.7885
13400.000000 132.489 -149.2072
13600.000000 133.855 -155.5625
13800.000000 134.847 -167.5755
14000.000000 134.707 176.7219
14300.000000 132.628 159.3512
14500.000000 130.906 154.2505
14750.000000 128.994 152.6235
15000.000000 127.429 153.3939
15250.000000 126.209 155.3899
15500.000000 125.276 157.8346
15750.000000 124.557 160.3262
16000.000000 123.948 161.0197
16250.000000 123.478 162.2811
16500.000000 123.123 161.9669
16750.000000 122.563 160.7104
17000.000000 121.729 158.0698
17250.000000 120.908 157.3896
17500.000000 119.781 155.4722
17750.000000 118.356 157.5619
18000.000000 116.880 159.0019
18250.000000 115.817 162.6646
18500.000000 115.157 164.2389
18750.000000 114.024 162.1652
19000.000000 113.321 154.7696
19250.000000 108.405 141.2049
19500.000000 99.174 143.2659
19750.000000 95.457 -116.1474
