* Measurement data measured by REW V5.31.1
* Source: Microphone (USB Sound Device        ), MICROPHONE (Master Volume), R, volume: 0.850
* Format: 256k Log Swept Sine, 1 sweep at -20.0 dBFS with no timing reference
* Dated: Jul 16, 2024 12:07:49 AM
* REW Settings:
*  C-weighting compensation: Off
*  Target level: 75.0 dB
* Note: 
* Measurement: R HYDRO DDDD Jul 16
* Smoothing: None
* Frequency Step: 1/48 octave
* Start Frequency: 20.300 Hz
*
* Freq(Hz) SPL(dB) Phase(degrees)
20.299999 134.611 -135.0149
20.600000 134.651 -135.2944
20.900000 134.696 -135.4968
21.200001 134.753 -135.7166
21.400000 134.798 -135.9051
21.799999 134.896 -136.3935
22.000000 134.945 -136.6838
22.400000 135.037 -137.2968
22.700001 135.103 -137.7272
23.000000 135.168 -138.0977
23.299999 135.238 -138.4133
23.600000 135.310 -138.6923
24.000000 135.407 -139.0382
24.299999 135.476 -139.2899
24.700001 135.557 -139.6115
25.000000 135.610 -139.8372
25.400000 135.673 -140.1223
25.799999 135.733 -140.4090
26.200001 135.792 -140.7134
26.500000 135.837 -140.9531
26.900000 135.900 -141.2819
27.200001 135.950 -141.5366
27.600000 136.019 -141.9000
28.000000 136.086 -142.3103
28.500000 136.158 -142.8942
29.000000 136.210 -143.5127
29.500000 136.252 -144.1129
30.000000 136.308 -144.6873
30.400000 136.374 -145.1520
30.700001 136.439 -145.5129
31.100000 136.540 -145.9997
31.500000 136.651 -146.4543
32.000000 136.784 -146.8857
32.500000 136.894 -147.0794
33.000000 136.973 -147.0525
33.500000 137.018 -146.9600
34.000000 137.027 -147.0245
34.500000 137.004 -147.3812
35.000000 136.971 -148.0094
35.500000 136.968 -148.7986
36.000000 137.023 -149.6456
36.500000 137.123 -150.4539
37.000000 137.227 -151.0779
37.500000 137.301 -151.3938
38.200001 137.351 -151.4384
38.700001 137.367 -151.5187
39.500000 137.390 -152.2545
40.000000 137.425 -152.9304
40.599998 137.513 -153.6546
41.200001 137.633 -154.1799
41.799999 137.728 -154.5270
42.500000 137.769 -154.7632
43.099998 137.777 -155.0314
43.700001 137.796 -155.5893
44.400002 137.835 -156.4527
45.000000 137.887 -157.0128
45.500000 137.943 -157.2942
46.200001 138.012 -157.6477
46.799999 138.034 -158.0528
47.500000 138.037 -158.5842
48.200001 138.073 -159.1819
48.700001 138.117 -159.6595
49.400002 138.172 -160.2534
50.000000 138.200 -160.5931
50.799999 138.228 -161.0231
51.500000 138.253 -161.5973
52.200001 138.286 -162.2275
53.000000 138.348 -162.7934
53.799999 138.408 -163.2347
54.500000 138.430 -163.6399
55.200001 138.426 -164.1236
56.000000 138.429 -164.7091
57.000000 138.485 -165.4048
58.000000 138.530 -166.1058
59.000000 138.539 -166.6093
60.000000 138.585 -167.2972
60.799999 138.601 -168.0105
61.500000 138.596 -168.4502
62.200001 138.607 -168.8106
63.000000 138.635 -169.3783
64.000000 138.657 -170.0886
65.000000 138.685 -170.5794
66.000000 138.712 -171.1982
67.000000 138.716 -171.8552
68.000000 138.733 -172.2647
69.000000 138.756 -172.7958
70.000000 138.755 -173.4040
71.000000 138.783 -173.9824
72.000000 138.779 -174.6983
73.000000 138.739 -175.1228
74.000000 138.758 -175.6339
75.000000 138.762 -176.2613
76.199997 138.790 -176.7335
77.500000 138.776 -177.7795
78.800003 138.765 -178.2386
80.000000 138.771 -179.0739
81.199997 138.776 -179.6343
82.500000 138.792 179.5616
83.800003 138.774 179.2256
85.000000 138.766 178.4715
86.199997 138.744 177.9130
87.500000 138.749 177.1508
88.500000 138.725 176.8161
90.000000 138.707 176.2437
91.199997 138.676 175.4692
92.500000 138.661 174.9391
93.800003 138.650 174.6317
95.000000 138.601 173.9986
96.199997 138.610 173.2625
97.500000 138.621 172.6901
98.800003 138.556 172.5381
100.000000 138.489 171.7495
101.500000 138.507 170.9178
103.000000 138.458 170.8833
104.400002 138.389 170.0206
106.000000 138.418 169.4244
107.500000 138.371 168.9858
109.000000 138.308 168.2687
110.599998 138.272 167.8358
112.000000 138.237 167.2564
113.800003 138.182 166.7215
115.000000 138.162 166.1939
117.199997 138.094 165.5471
118.000000 138.073 165.1053
120.599998 138.024 164.2570
122.000000 137.952 164.1902
124.099998 137.851 163.4440
125.000000 137.839 163.1042
126.500000 137.817 162.6447
128.000000 137.728 162.2473
131.500000 137.664 161.1257
132.000000 137.642 161.1038
134.000000 137.533 160.6100
136.000000 137.510 160.0350
138.000000 137.397 159.7125
140.000000 137.338 159.0772
143.000000 137.222 158.4547
145.000000 137.161 158.0302
147.500000 137.073 157.4568
150.000000 136.977 157.0247
152.500000 136.898 156.6104
155.000000 136.782 155.9620
157.500000 136.701 155.6696
160.000000 136.606 155.1860
162.500000 136.516 154.7784
165.000000 136.399 154.4765
167.500000 136.315 154.1201
170.000000 136.219 153.6575
172.500000 136.114 153.3763
175.000000 136.028 153.0839
177.500000 135.914 152.7642
180.000000 135.823 152.5323
182.500000 135.731 152.2416
185.000000 135.623 151.7812
187.500000 135.493 151.5934
190.000000 135.384 151.3657
192.500000 135.229 151.1773
195.000000 135.273 150.7519
197.500000 135.114 151.2221
200.000000 135.084 150.8777
203.000000 134.926 150.9015
206.000000 134.796 150.5057
209.000000 134.772 150.5238
212.000000 134.586 150.4608
214.000000 134.537 150.3033
218.000000 134.400 150.3026
220.000000 134.326 150.3734
224.000000 134.182 150.3452
227.000000 134.087 150.2443
230.000000 133.968 150.2838
233.000000 133.864 150.2725
236.000000 133.767 150.3286
240.000000 133.631 150.4219
243.000000 133.525 150.5210
247.000000 133.403 150.6345
250.000000 133.315 150.7105
254.000000 133.179 150.8656
258.000000 133.065 151.0665
262.000000 132.940 151.2586
265.000000 132.849 151.4267
269.000000 132.727 151.7135
272.000000 132.641 151.8376
276.000000 132.543 152.1215
280.000000 132.425 152.3575
285.000000 132.305 152.6937
290.000000 132.167 153.1235
295.000000 132.048 153.5408
300.000000 131.929 153.9830
304.000000 131.818 154.3339
307.000000 131.756 154.5774
311.000000 131.655 154.9797
315.000000 131.573 155.3108
320.000000 131.468 155.7707
325.000000 131.353 156.2745
330.000000 131.261 156.7614
335.000000 131.168 157.2633
340.000000 131.076 157.7917
345.000000 130.981 158.3510
350.000000 130.898 158.8580
355.000000 130.827 159.3344
360.000000 130.744 159.9604
365.000000 130.657 160.6532
370.000000 130.602 160.9807
375.000000 130.523 161.8240
382.000000 130.419 162.6721
387.000000 130.337 162.8837
395.000000 130.283 163.7533
400.000000 130.221 164.3769
406.000000 130.153 164.9382
412.000000 130.092 165.6228
418.000000 130.045 166.2664
425.000000 129.959 167.1172
431.000000 129.916 167.7546
437.000000 129.859 168.3349
444.000000 129.812 169.1218
450.000000 129.754 169.8026
455.000000 129.736 170.2603
462.000000 129.680 171.0191
468.000000 129.655 171.6851
475.000000 129.611 172.3843
482.000000 129.569 173.1710
487.000000 129.548 173.6903
494.000000 129.524 174.4205
500.000000 129.491 174.9185
508.000000 129.454 175.8480
515.000000 129.434 176.5435
522.000000 129.412 177.2402
530.000000 129.371 178.0629
538.000000 129.368 178.7814
545.000000 129.357 179.5540
552.000000 129.329 -179.7492
560.000000 129.296 -179.1351
570.000000 129.302 -178.1878
580.000000 129.311 -177.2227
590.000000 129.277 -176.2418
600.000000 129.275 -175.3810
608.000000 129.279 -174.6174
615.000000 129.294 -174.0856
622.000000 129.292 -173.2943
630.000000 129.297 -172.6480
640.000000 129.304 -171.7735
650.000000 129.320 -170.9289
660.000000 129.320 -170.1173
670.000000 129.336 -169.1091
680.000000 129.380 -168.3414
690.000000 129.383 -167.4518
700.000000 129.405 -166.6284
710.000000 129.431 -165.9414
720.000000 129.463 -165.0291
730.000000 129.499 -164.1736
740.000000 129.534 -163.3588
750.000000 129.578 -162.6326
762.000000 129.635 -161.8020
775.000000 129.698 -160.7845
788.000000 129.750 -159.7193
800.000000 129.816 -158.8568
812.000000 129.884 -158.0343
825.000000 129.966 -157.1458
838.000000 130.061 -156.2858
850.000000 130.122 -155.6730
862.000000 130.193 -154.8214
875.000000 130.282 -153.9885
885.000000 130.359 -153.4371
900.000000 130.459 -152.6003
912.000000 130.558 -152.0141
925.000000 130.666 -151.4743
938.000000 130.764 -150.9338
950.000000 130.838 -150.5801
962.000000 130.915 -150.1336
975.000000 130.962 -149.5229
988.000000 131.037 -148.8657
1000.000000 131.106 -148.2856
1015.000000 131.210 -147.5123
1030.000000 131.336 -146.7455
1044.000000 131.458 -146.1308
1060.000000 131.587 -145.5352
1075.000000 131.742 -145.0225
1090.000000 131.874 -144.6025
1106.000000 132.021 -144.1228
1120.000000 132.128 -143.7791
1138.000000 132.310 -143.4023
1150.000000 132.418 -143.1811
1172.000000 132.621 -143.1278
1180.000000 132.675 -142.9783
1206.000000 132.871 -142.9259
1220.000000 132.969 -142.8253
1241.000000 133.104 -142.7727
1250.000000 133.162 -142.7248
1265.000000 133.254 -142.6950
1280.000000 133.348 -142.6776
1315.000000 133.560 -142.5964
1320.000000 133.588 -142.7162
1340.000000 133.700 -142.5928
1360.000000 133.797 -142.5855
1380.000000 133.902 -142.5896
1400.000000 134.000 -142.5332
1430.000000 134.144 -142.6194
1450.000000 134.231 -142.5961
1475.000000 134.344 -142.5867
1500.000000 134.456 -142.5660
1525.000000 134.556 -142.6266
1550.000000 134.662 -142.5725
1575.000000 134.758 -142.5288
1600.000000 134.867 -142.4620
1625.000000 134.968 -142.4507
1650.000000 135.070 -142.4899
1675.000000 135.168 -142.4160
1700.000000 135.262 -142.4562
1725.000000 135.360 -142.3886
1750.000000 135.464 -142.3548
1775.000000 135.565 -142.3766
1800.000000 135.669 -142.3138
1825.000000 135.767 -142.3789
1850.000000 135.875 -142.3677
1875.000000 135.980 -142.4128
1900.000000 136.081 -142.4333
1925.000000 136.183 -142.5306
1950.000000 136.291 -142.5481
1975.000000 136.398 -142.6124
2000.000000 136.495 -142.6603
2030.000000 136.636 -142.9078
2060.000000 136.763 -143.0329
2090.000000 136.897 -143.1818
2120.000000 137.021 -143.4128
2140.000000 137.120 -143.5606
2180.000000 137.292 -143.9341
2200.000000 137.378 -144.2216
2240.000000 137.557 -144.5653
2270.000000 137.687 -144.9570
2300.000000 137.813 -145.3646
2330.000000 137.948 -145.8131
2360.000000 138.073 -146.2791
2400.000000 138.244 -146.9736
2430.000000 138.364 -147.5744
2470.000000 138.532 -148.4342
2500.000000 138.650 -149.0828
2540.000000 138.790 -150.0413
2580.000000 138.927 -151.0788
2620.000000 139.056 -152.1133
2650.000000 139.142 -152.9426
2690.000000 139.253 -154.1406
2720.000000 139.330 -154.9849
2760.000000 139.422 -156.1402
2800.000000 139.491 -157.3717
2850.000000 139.573 -158.9079
2900.000000 139.645 -160.4742
2950.000000 139.692 -161.9933
3000.000000 139.745 -163.4983
3040.000000 139.746 -164.7733
3070.000000 139.749 -165.6685
3110.000000 139.747 -166.8761
3150.000000 139.739 -167.9707
3200.000000 139.710 -169.3982
3250.000000 139.685 -170.8011
3300.000000 139.635 -172.1392
3350.000000 139.583 -173.3735
3400.000000 139.520 -174.5792
3450.000000 139.452 -175.7074
3500.000000 139.366 -176.8210
3550.000000 139.295 -177.8614
3600.000000 139.199 -178.8409
3650.000000 139.111 -179.7412
3700.000000 139.019 179.3743
3750.000000 138.922 178.5617
3820.000000 138.794 177.4845
3870.000000 138.698 176.8028
3950.000000 138.540 175.7421
4000.000000 138.436 175.0371
4060.000000 138.310 174.5139
4120.000000 138.195 173.8525
4180.000000 138.082 173.2597
4250.000000 137.939 172.7139
4310.000000 137.819 172.2128
4370.000000 137.701 171.6339
4440.000000 137.564 171.2257
4500.000000 137.437 170.8577
4550.000000 137.341 170.5408
4620.000000 137.190 170.1241
4680.000000 137.077 169.9058
4750.000000 136.941 169.5470
4820.000000 136.780 169.2875
4870.000000 136.677 169.1496
4940.000000 136.528 168.9155
5000.000000 136.407 168.8492
5080.000000 136.225 168.7103
5150.000000 136.059 168.6878
5220.000000 135.904 168.6716
5300.000000 135.715 168.6731
5380.000000 135.528 169.0140
5450.000000 135.366 169.2197
5520.000000 135.203 169.3912
5600.000000 135.004 169.8822
5700.000000 134.777 170.5606
5800.000000 134.535 171.4049
5900.000000 134.307 172.4023
6000.000000 134.101 173.8010
6080.000000 133.957 174.9260
6150.000000 133.847 175.9841
6220.000000 133.773 177.1442
6300.000000 133.693 178.2512
6400.000000 133.618 179.6533
6500.000000 133.547 -179.0584
6600.000000 133.490 -177.5641
6700.000000 133.420 -176.2463
6800.000000 133.392 -174.7709
6900.000000 133.376 -173.3979
7000.000000 133.357 -171.8495
7100.000000 133.396 -170.4349
7200.000000 133.451 -168.8702
7300.000000 133.517 -167.4808
7400.000000 133.638 -166.1663
7500.000000 133.790 -165.0413
7620.000000 133.995 -163.8396
7750.000000 134.249 -162.8170
7880.000000 134.567 -162.1454
8000.000000 134.893 -161.8229
8120.000000 135.257 -162.4004
8250.000000 135.658 -163.6281
8380.000000 136.065 -165.5616
8500.000000 136.369 -168.2948
8620.000000 136.611 -171.7779
8750.000000 136.734 -176.3374
8850.000000 136.705 179.8945
9000.000000 136.411 174.2184
9120.000000 136.014 170.1269
9250.000000 135.446 166.5388
9380.000000 134.786 163.9377
9500.000000 134.151 162.2667
9620.000000 133.513 161.3336
9750.000000 132.845 161.2787
9880.000000 132.210 161.7595
10000.000000 131.689 162.5462
10150.000000 131.102 164.0608
10300.000000 130.577 166.2806
10440.000000 130.157 168.3652
10600.000000 129.804 170.9188
10750.000000 129.538 173.5286
10900.000000 129.296 176.0221
11060.000000 129.106 178.5956
11200.000000 128.976 -179.2578
11380.000000 128.858 -176.7278
11500.000000 128.785 -174.8938
11720.000000 128.612 -171.4751
11800.000000 128.555 -169.9872
12060.000000 128.543 -164.7767
12200.000000 128.678 -161.7298
12410.000000 129.017 -157.7791
12500.000000 129.209 -156.5317
12650.000000 129.567 -154.2934
12800.000000 130.007 -152.1904
13150.000000 131.541 -149.5383
13200.000000 131.864 -149.6751
13400.000000 133.179 -153.0865
13600.000000 134.427 -161.4575
13800.000000 134.994 -175.3480
14000.000000 134.392 169.6631
14300.000000 132.058 155.3065
14500.000000 130.361 151.7136
14750.000000 128.513 150.5938
15000.000000 126.994 151.9070
15250.000000 125.812 154.4417
15500.000000 124.837 156.3512
15750.000000 124.080 158.6339
16000.000000 123.517 159.9548
16250.000000 123.170 160.8343
16500.000000 122.580 160.4958
16750.000000 121.908 158.0506
17000.000000 121.105 157.1303
17250.000000 120.033 156.1555
17500.000000 118.765 155.2267
17750.000000 117.574 157.5508
18000.000000 116.231 159.1351
18250.000000 114.871 163.1922
18500.000000 114.490 165.9691
18750.000000 113.573 167.5489
19000.000000 112.824 157.8273
19250.000000 106.996 135.1124
19500.000000 97.333 155.7593
19750.000000 95.880 -109.5867
