* Measurement data measured by REW V5.31.1
* Source: Microphone (USB Sound Device        ), MICROPHONE (Master Volume), R, volume: 0.850
* Format: 256k Log Swept Sine, 1 sweep at -20.0 dBFS with no timing reference
* Dated: Jul 16, 2024 12:19:41 AM
* REW Settings:
*  C-weighting compensation: Off
*  Target level: 75.0 dB
* Note: 
* Measurement: R HYDRO UUDD Jul 16
* Smoothing: None
* Frequency Step: 1/48 octave
* Start Frequency: 20.300 Hz
*
* Freq(Hz) SPL(dB) Phase(degrees)
20.299999 137.692 -144.6403
20.600000 137.745 -145.1181
20.900000 137.784 -145.5402
21.200001 137.816 -145.9199
21.400000 137.838 -146.1467
21.799999 137.890 -146.5635
22.000000 137.922 -146.7728
22.400000 137.993 -147.2398
22.700001 138.047 -147.6473
23.000000 138.094 -148.0874
23.299999 138.133 -148.5199
23.600000 138.166 -148.9137
24.000000 138.208 -149.3603
24.299999 138.244 -149.6622
24.700001 138.302 -150.0857
25.000000 138.346 -150.4522
25.400000 138.398 -150.9945
25.799999 138.436 -151.5164
26.200001 138.469 -151.9349
26.500000 138.499 -152.1809
26.900000 138.555 -152.4870
27.200001 138.605 -152.7690
27.600000 138.671 -153.2687
28.000000 138.718 -153.8717
28.500000 138.743 -154.5841
29.000000 138.757 -155.0745
29.500000 138.796 -155.4000
30.000000 138.865 -155.7918
30.400000 138.922 -156.2395
30.700001 138.955 -156.6272
31.100000 138.979 -157.1232
31.500000 138.991 -157.5199
32.000000 139.011 -157.8642
32.500000 139.055 -158.1669
33.000000 139.120 -158.5841
33.500000 139.187 -159.1511
34.000000 139.242 -159.7929
34.500000 139.284 -160.4126
35.000000 139.316 -160.9667
35.500000 139.343 -161.4714
36.000000 139.369 -161.9731
36.500000 139.389 -162.4996
37.000000 139.404 -163.0368
37.500000 139.416 -163.5464
38.200001 139.441 -164.1801
38.700001 139.464 -164.5918
39.500000 139.499 -165.2067
40.000000 139.519 -165.5784
40.599998 139.550 -166.0756
41.200001 139.583 -166.6813
41.799999 139.610 -167.3231
42.500000 139.636 -167.9429
43.099998 139.669 -168.3446
43.700001 139.713 -168.7413
44.400002 139.769 -169.2730
45.000000 139.817 -169.7245
45.500000 139.861 -170.0339
46.200001 139.934 -170.3469
46.799999 139.997 -170.5334
47.500000 140.052 -170.6702
48.200001 140.079 -170.7452
48.700001 140.076 -170.8428
49.400002 140.026 -171.1914
50.000000 139.931 -171.7065
50.799999 139.757 -172.5592
51.500000 139.620 -173.4081
52.200001 139.551 -174.4490
53.000000 139.596 -175.8958
53.799999 139.773 -177.1978
54.500000 139.967 -177.5920
55.200001 140.091 -177.0837
56.000000 140.037 -176.2191
57.000000 139.738 -176.8870
58.000000 139.666 -179.6245
59.000000 139.966 179.1976
60.000000 140.026 -179.4272
60.799999 139.749 -179.0775
61.500000 139.527 179.3853
62.200001 139.583 177.2187
63.000000 139.872 176.3471
64.000000 139.970 177.6298
65.000000 139.680 177.4271
66.000000 139.662 174.6426
67.000000 140.007 173.9233
68.000000 140.074 175.4989
69.000000 139.806 175.5127
70.000000 139.754 173.8456
71.000000 139.886 173.5814
72.000000 139.763 174.0158
73.000000 139.511 172.4666
74.000000 139.562 170.3082
75.000000 139.788 169.9393
76.199997 139.778 170.7590
77.500000 139.548 170.6487
78.800003 139.350 168.8234
80.000000 139.456 166.5797
81.199997 139.767 166.3549
82.500000 139.682 168.0138
83.800003 139.389 167.1811
85.000000 139.421 165.4457
86.199997 139.485 165.6542
87.500000 139.319 165.1242
88.500000 139.292 164.0373
90.000000 139.368 163.9183
91.199997 139.223 163.7589
92.500000 139.174 162.6300
93.800003 139.201 162.1807
95.000000 139.073 161.9184
96.199997 139.079 161.1006
97.500000 139.054 160.8035
98.800003 138.934 160.4882
100.000000 138.931 159.5543
101.500000 138.901 159.4550
103.000000 138.780 158.7538
104.400002 138.781 158.2840
106.000000 138.677 157.7521
107.500000 138.632 157.1151
109.000000 138.569 156.7939
110.599998 138.500 156.3793
112.000000 138.439 155.6396
113.800003 138.376 155.3355
115.000000 138.301 154.9053
117.199997 138.226 154.2803
118.000000 138.167 153.9963
120.599998 138.072 153.3478
122.000000 137.988 153.1454
124.099998 137.927 152.4233
125.000000 137.861 152.2562
126.500000 137.805 151.9814
128.000000 137.723 151.3777
131.500000 137.581 150.8222
132.000000 137.555 150.6454
134.000000 137.444 150.3356
136.000000 137.365 149.8966
138.000000 137.270 149.4858
140.000000 137.174 149.1722
143.000000 137.036 148.6044
145.000000 136.933 148.2824
147.500000 136.820 147.9645
150.000000 136.701 147.5595
152.500000 136.572 147.2260
155.000000 136.456 146.9788
157.500000 136.337 146.6573
160.000000 136.217 146.3681
162.500000 136.100 146.1284
165.000000 135.975 145.8259
167.500000 135.855 145.6712
170.000000 135.748 145.4913
172.500000 135.633 145.2431
175.000000 135.535 145.2049
177.500000 135.411 145.1028
180.000000 135.292 144.9562
182.500000 135.162 144.8014
185.000000 135.097 144.8539
187.500000 134.928 144.6830
190.000000 134.849 144.5793
192.500000 134.742 144.4749
195.000000 134.624 144.6825
197.500000 134.540 144.6769
200.000000 134.406 144.3539
203.000000 134.266 144.9563
206.000000 134.180 144.7144
209.000000 134.042 144.7663
212.000000 133.889 144.8606
214.000000 133.855 145.0884
218.000000 133.669 145.0974
220.000000 133.607 145.2925
224.000000 133.447 145.5076
227.000000 133.341 145.7030
230.000000 133.225 145.7622
233.000000 133.108 145.9717
236.000000 132.998 146.2601
240.000000 132.880 146.5125
243.000000 132.776 146.7819
247.000000 132.647 147.1817
250.000000 132.545 147.5439
254.000000 132.403 147.8616
258.000000 132.274 148.2097
262.000000 132.177 148.5912
265.000000 132.076 149.0189
269.000000 131.961 149.4034
272.000000 131.888 149.7797
276.000000 131.768 150.2482
280.000000 131.686 150.6775
285.000000 131.539 151.2307
290.000000 131.419 151.9161
295.000000 131.341 152.6627
300.000000 131.221 153.0645
304.000000 131.115 153.5497
307.000000 131.057 154.1189
311.000000 130.984 154.5526
315.000000 130.916 154.9974
320.000000 130.821 155.7479
325.000000 130.740 156.3614
330.000000 130.647 157.0519
335.000000 130.567 157.6573
340.000000 130.508 158.2832
345.000000 130.433 158.9225
350.000000 130.361 159.5788
355.000000 130.293 160.2382
360.000000 130.241 160.8654
365.000000 130.181 161.4785
370.000000 130.118 162.1270
375.000000 130.075 162.8167
382.000000 130.005 163.6119
387.000000 129.964 164.2410
395.000000 129.894 165.1895
400.000000 129.852 165.7414
406.000000 129.802 166.4617
412.000000 129.758 167.1021
418.000000 129.722 167.8816
425.000000 129.681 168.8046
431.000000 129.640 169.4149
437.000000 129.611 170.0699
444.000000 129.574 170.7640
450.000000 129.535 171.4885
455.000000 129.526 172.1499
462.000000 129.519 172.5367
468.000000 129.483 173.1590
475.000000 129.456 174.1235
482.000000 129.446 174.7485
487.000000 129.425 175.4409
494.000000 129.431 176.2160
500.000000 129.363 176.6927
508.000000 129.342 177.5726
515.000000 129.334 177.8691
522.000000 129.385 178.7697
530.000000 129.342 179.8400
538.000000 129.288 -179.5555
545.000000 129.331 -179.0125
552.000000 129.312 -178.3948
560.000000 129.325 -177.4974
570.000000 129.308 -176.7924
580.000000 129.306 -175.7476
590.000000 129.298 -174.9851
600.000000 129.297 -174.0162
608.000000 129.318 -173.4931
615.000000 129.339 -172.7986
622.000000 129.334 -172.1576
630.000000 129.348 -171.5383
640.000000 129.347 -170.6753
650.000000 129.379 -169.8565
660.000000 129.383 -169.0376
670.000000 129.405 -168.2177
680.000000 129.424 -167.4618
690.000000 129.453 -166.5379
700.000000 129.481 -165.8462
710.000000 129.518 -165.0285
720.000000 129.547 -164.1794
730.000000 129.583 -163.4236
740.000000 129.605 -162.6746
750.000000 129.663 -162.0018
762.000000 129.710 -161.0771
775.000000 129.754 -160.0870
788.000000 129.824 -159.0654
800.000000 129.892 -158.2458
812.000000 129.963 -157.4975
825.000000 130.040 -156.5423
838.000000 130.123 -155.7083
850.000000 130.199 -154.9826
862.000000 130.266 -154.3539
875.000000 130.367 -153.5406
885.000000 130.426 -152.9485
900.000000 130.547 -152.1063
912.000000 130.644 -151.5413
925.000000 130.744 -151.0978
938.000000 130.821 -150.6756
950.000000 130.904 -150.1988
962.000000 130.941 -149.6007
975.000000 130.999 -148.9267
988.000000 131.089 -148.1795
1000.000000 131.170 -147.4793
1015.000000 131.318 -146.6927
1030.000000 131.457 -146.0472
1044.000000 131.573 -145.5387
1060.000000 131.730 -144.9525
1075.000000 131.863 -144.5007
1090.000000 132.001 -144.0852
1106.000000 132.145 -143.6795
1120.000000 132.277 -143.4032
1138.000000 132.444 -143.0147
1150.000000 132.561 -142.8477
1172.000000 132.742 -142.7155
1180.000000 132.812 -142.7589
1206.000000 132.993 -142.7540
1220.000000 133.085 -142.5897
1241.000000 133.230 -142.5381
1250.000000 133.286 -142.5650
1265.000000 133.373 -142.4488
1280.000000 133.473 -142.5149
1315.000000 133.674 -142.4206
1320.000000 133.711 -142.4428
1340.000000 133.818 -142.3739
1360.000000 133.915 -142.4458
1380.000000 134.022 -142.4812
1400.000000 134.127 -142.4679
1430.000000 134.268 -142.4978
1450.000000 134.356 -142.4746
1475.000000 134.463 -142.5270
1500.000000 134.563 -142.5257
1525.000000 134.677 -142.4284
1550.000000 134.779 -142.4980
1575.000000 134.881 -142.4557
1600.000000 134.977 -142.4191
1625.000000 135.074 -142.4029
1650.000000 135.177 -142.4203
1675.000000 135.276 -142.3558
1700.000000 135.370 -142.4165
1725.000000 135.477 -142.3496
1750.000000 135.574 -142.3189
1775.000000 135.677 -142.3403
1800.000000 135.777 -142.2713
1825.000000 135.881 -142.3442
1850.000000 135.980 -142.3990
1875.000000 136.086 -142.3857
1900.000000 136.194 -142.5050
1925.000000 136.299 -142.5070
1950.000000 136.401 -142.5735
1975.000000 136.504 -142.6960
2000.000000 136.622 -142.7922
2030.000000 136.745 -142.8974
2060.000000 136.879 -143.0430
2090.000000 136.995 -143.1999
2120.000000 137.138 -143.4336
2140.000000 137.223 -143.6052
2180.000000 137.407 -143.9863
2200.000000 137.483 -144.1732
2240.000000 137.667 -144.6729
2270.000000 137.796 -145.0245
2300.000000 137.926 -145.4384
2330.000000 138.056 -145.8950
2360.000000 138.187 -146.3949
2400.000000 138.353 -147.1311
2430.000000 138.479 -147.6534
2470.000000 138.633 -148.5439
2500.000000 138.752 -149.2501
2540.000000 138.897 -150.2065
2580.000000 139.031 -151.2330
2620.000000 139.157 -152.2983
2650.000000 139.247 -153.1301
2690.000000 139.351 -154.2758
2720.000000 139.431 -155.1944
2760.000000 139.516 -156.3625
2800.000000 139.595 -157.5945
2850.000000 139.671 -159.0745
2900.000000 139.744 -160.6659
2950.000000 139.789 -162.2031
3000.000000 139.829 -163.7927
3040.000000 139.834 -165.0399
3070.000000 139.844 -165.9244
3110.000000 139.832 -167.0812
3150.000000 139.819 -168.2286
3200.000000 139.796 -169.6731
3250.000000 139.764 -171.0671
3300.000000 139.712 -172.3539
3350.000000 139.650 -173.6072
3400.000000 139.589 -174.8660
3450.000000 139.522 -175.9797
3500.000000 139.441 -177.0500
3550.000000 139.358 -178.0913
3600.000000 139.269 -179.0515
3650.000000 139.184 179.9790
3700.000000 139.087 179.1398
3750.000000 138.983 178.3961
3820.000000 138.849 177.2385
3870.000000 138.752 176.6312
3950.000000 138.599 175.5667
4000.000000 138.493 175.0120
4060.000000 138.376 174.3082
4120.000000 138.255 173.6648
4180.000000 138.133 173.1181
4250.000000 137.995 172.4362
4310.000000 137.874 172.0363
4370.000000 137.753 171.5259
4440.000000 137.614 171.0454
4500.000000 137.505 170.6279
4550.000000 137.392 170.3695
4620.000000 137.257 169.9405
4680.000000 137.124 169.7041
4750.000000 136.969 169.3692
4820.000000 136.844 169.0563
4870.000000 136.723 168.9478
4940.000000 136.584 168.8079
5000.000000 136.446 168.7499
5080.000000 136.277 168.5373
5150.000000 136.104 168.5213
5220.000000 135.936 168.5659
5300.000000 135.769 168.6129
5380.000000 135.574 168.8207
5450.000000 135.413 169.0113
5520.000000 135.239 169.3318
5600.000000 135.048 169.7563
5700.000000 134.810 170.4594
5800.000000 134.564 171.2421
5900.000000 134.334 172.4471
6000.000000 134.118 173.6029
6080.000000 133.982 174.7290
6150.000000 133.895 175.8460
6220.000000 133.779 176.9593
6300.000000 133.721 178.1847
6400.000000 133.634 179.5561
6500.000000 133.552 -179.0895
6600.000000 133.484 -177.6489
6700.000000 133.435 -176.3090
6800.000000 133.396 -174.6624
6900.000000 133.375 -173.3644
7000.000000 133.366 -171.9726
7100.000000 133.378 -170.3673
7200.000000 133.451 -168.8739
7300.000000 133.533 -167.4944
7400.000000 133.648 -166.2307
7500.000000 133.763 -164.9067
7620.000000 133.965 -163.7389
7750.000000 134.247 -162.5056
7880.000000 134.552 -161.7785
8000.000000 134.841 -161.6819
8120.000000 135.232 -162.0508
8250.000000 135.634 -163.0229
8380.000000 136.034 -164.9241
8500.000000 136.381 -167.5771
8620.000000 136.627 -170.9526
8750.000000 136.760 -175.3199
8850.000000 136.754 -179.0885
9000.000000 136.492 175.3458
9120.000000 136.123 171.1836
9250.000000 135.579 167.4812
9380.000000 134.925 164.7291
9500.000000 134.297 162.9908
9620.000000 133.672 161.9579
9750.000000 133.005 161.7658
9880.000000 132.392 162.0212
10000.000000 131.843 162.8929
10150.000000 131.264 164.4874
10300.000000 130.739 166.2850
10440.000000 130.344 168.4861
10600.000000 129.924 170.8733
10750.000000 129.641 173.2155
10900.000000 129.412 175.7903
11060.000000 129.266 178.3572
11200.000000 129.093 -179.6817
11380.000000 128.942 -177.0990
11500.000000 128.856 -175.3419
11720.000000 128.698 -172.0683
11800.000000 128.599 -170.2221
12060.000000 128.627 -165.4142
12200.000000 128.736 -161.9503
12410.000000 129.128 -158.1965
12500.000000 129.269 -156.4341
12650.000000 129.641 -154.6302
12800.000000 130.051 -152.4479
13150.000000 131.612 -149.6149
13200.000000 131.930 -149.7768
13400.000000 133.288 -153.1322
13600.000000 134.549 -161.7659
13800.000000 135.120 -175.9330
14000.000000 134.479 168.6539
14300.000000 132.058 154.2773
14500.000000 130.357 150.6863
14750.000000 128.430 149.6486
15000.000000 126.991 151.0839
15250.000000 125.754 153.9293
15500.000000 124.732 155.8013
15750.000000 124.076 158.8290
16000.000000 123.441 159.6347
16250.000000 122.958 161.1725
16500.000000 122.376 160.1577
16750.000000 121.783 159.1789
17000.000000 121.091 157.9901
17250.000000 119.951 156.7354
17500.000000 118.803 156.1763
17750.000000 117.468 156.4377
18000.000000 116.359 159.1546
18250.000000 115.292 165.2043
18500.000000 114.180 167.7027
18750.000000 113.404 167.1664
19000.000000 112.628 156.4795
19250.000000 106.187 145.4001
19500.000000 98.621 157.4716
19750.000000 95.955 -104.4458
