* Measurement data measured by REW V5.31.1
* Source: Microphone (USB Sound Device        ), MICROPHONE (Master Volume), L, volume: 0.850
* Format: 256k Log Swept Sine, 1 sweep at -20.0 dBFS with no timing reference
* Dated: Jul 16, 2024 12:06:27 AM
* REW Settings:
*  C-weighting compensation: Off
*  Target level: 75.0 dB
* Note: 
* Measurement: L HYDRO UDUD Jul 16
* Smoothing: None
* Frequency Step: 1/48 octave
* Start Frequency: 20.300 Hz
*
* Freq(Hz) SPL(dB) Phase(degrees)
20.299999 136.473 -143.1054
20.600000 136.526 -143.4620
20.900000 136.572 -143.7806
21.200001 136.617 -144.0986
21.400000 136.647 -144.3136
21.799999 136.709 -144.7519
22.000000 136.740 -144.9740
22.400000 136.803 -145.4180
22.700001 136.849 -145.7451
23.000000 136.894 -146.0635
23.299999 136.938 -146.3744
23.600000 136.982 -146.6806
24.000000 137.039 -147.0870
24.299999 137.082 -147.3926
24.700001 137.137 -147.7998
25.000000 137.179 -148.1019
25.400000 137.234 -148.4964
25.799999 137.289 -148.8816
26.200001 137.344 -149.2610
26.500000 137.383 -149.5442
26.900000 137.432 -149.9211
27.200001 137.467 -150.2027
27.600000 137.511 -150.5773
28.000000 137.555 -150.9556
28.500000 137.612 -151.4430
29.000000 137.668 -151.9417
29.500000 137.722 -152.4226
30.000000 137.776 -152.8569
30.400000 137.821 -153.1801
30.700001 137.855 -153.4258
31.100000 137.898 -153.7812
31.500000 137.934 -154.1709
32.000000 137.965 -154.6677
32.500000 137.988 -155.1107
33.000000 138.018 -155.4840
33.500000 138.063 -155.8454
34.000000 138.119 -156.2590
34.500000 138.171 -156.7194
35.000000 138.214 -157.1725
35.500000 138.251 -157.5823
36.000000 138.287 -157.9659
36.500000 138.324 -158.3536
37.000000 138.360 -158.7519
37.500000 138.395 -159.1497
38.200001 138.443 -159.7030
38.700001 138.474 -160.1002
39.500000 138.518 -160.7171
40.000000 138.544 -161.0897
40.599998 138.577 -161.5448
41.200001 138.609 -162.0081
41.799999 138.638 -162.4562
42.500000 138.672 -162.9662
43.099998 138.699 -163.4183
43.700001 138.723 -163.8687
44.400002 138.751 -164.3680
45.000000 138.777 -164.7932
45.500000 138.797 -165.1520
46.200001 138.819 -165.6290
46.799999 138.839 -166.0104
47.500000 138.866 -166.4788
48.200001 138.889 -166.9808
48.700001 138.903 -167.3317
49.400002 138.923 -167.7998
50.000000 138.940 -168.1927
50.799999 138.962 -168.7006
51.500000 138.980 -169.1355
52.200001 138.995 -169.5870
53.000000 139.007 -170.1236
53.799999 139.019 -170.6718
54.500000 139.031 -171.1373
55.200001 139.045 -171.5504
56.000000 139.064 -171.9864
57.000000 139.076 -172.5708
58.000000 139.078 -173.1658
59.000000 139.089 -173.7663
60.000000 139.100 -174.3716
60.799999 139.101 -174.8138
61.500000 139.104 -175.1687
62.200001 139.113 -175.5493
63.000000 139.120 -176.0317
64.000000 139.115 -176.5604
65.000000 139.115 -177.0639
66.000000 139.109 -177.6171
67.000000 139.112 -178.1147
68.000000 139.113 -178.6674
69.000000 139.101 -179.1388
70.000000 139.103 -179.6208
71.000000 139.094 179.8234
72.000000 139.081 179.3461
73.000000 139.072 178.8854
74.000000 139.068 178.4007
75.000000 139.055 177.8875
76.199997 139.035 177.3997
77.500000 139.015 176.8300
78.800003 139.001 176.2646
80.000000 138.981 175.6770
81.199997 138.962 175.1943
82.500000 138.940 174.6436
83.800003 138.913 174.1184
85.000000 138.889 173.6416
86.199997 138.864 173.1017
87.500000 138.833 172.6326
88.500000 138.820 172.2164
90.000000 138.788 171.6893
91.199997 138.756 171.2310
92.500000 138.729 170.7453
93.800003 138.676 170.2954
95.000000 138.678 169.8774
96.199997 138.615 169.4258
97.500000 138.592 168.8644
98.800003 138.540 168.6712
100.000000 138.546 168.0182
101.500000 138.478 167.8835
103.000000 138.407 167.0134
104.400002 138.427 166.9551
106.000000 138.308 166.3851
107.500000 138.312 165.7459
109.000000 138.226 165.5754
110.599998 138.191 164.9318
112.000000 138.151 164.7247
113.800003 138.088 164.1157
115.000000 138.050 163.9078
117.199997 137.956 163.4307
118.000000 137.970 163.1371
120.599998 137.925 162.8567
122.000000 137.785 161.7247
124.099998 137.767 161.8870
125.000000 137.698 161.1392
126.500000 137.575 161.2815
128.000000 137.609 161.1545
131.500000 137.407 160.4777
132.000000 137.419 160.5406
134.000000 137.409 159.4992
136.000000 137.251 159.4519
138.000000 137.203 159.3558
140.000000 137.157 158.9156
143.000000 136.994 158.3863
145.000000 136.906 158.3290
147.500000 136.819 158.2945
150.000000 136.736 158.0571
152.500000 136.655 157.6417
155.000000 136.540 157.1490
157.500000 136.452 156.8176
160.000000 136.364 156.4557
162.500000 136.282 156.3337
165.000000 136.177 156.2022
167.500000 136.068 156.0703
170.000000 135.973 155.9418
172.500000 135.877 155.8512
175.000000 135.753 155.7245
177.500000 135.629 155.6837
180.000000 135.521 155.3061
182.500000 135.454 155.1792
185.000000 135.395 155.1890
187.500000 135.340 155.3319
190.000000 135.242 155.6684
192.500000 135.114 155.6843
195.000000 135.049 155.4333
197.500000 134.972 155.5515
200.000000 134.869 155.4716
203.000000 134.767 155.2178
206.000000 134.611 155.1035
209.000000 134.502 155.5755
212.000000 134.411 156.1488
214.000000 134.359 155.4995
218.000000 134.281 156.3317
220.000000 134.136 156.1570
224.000000 134.123 156.6323
227.000000 133.997 156.8562
230.000000 133.925 156.6448
233.000000 133.812 157.1313
236.000000 133.727 157.4250
240.000000 133.625 157.6317
243.000000 133.530 157.9379
247.000000 133.433 158.3089
250.000000 133.381 158.4280
254.000000 133.255 158.8779
258.000000 133.156 159.3804
262.000000 133.071 159.9119
265.000000 133.032 160.0807
269.000000 132.935 160.6207
272.000000 132.890 160.8631
276.000000 132.800 161.2535
280.000000 132.713 161.7490
285.000000 132.628 162.3622
290.000000 132.549 162.9349
295.000000 132.481 163.6340
300.000000 132.411 163.9660
304.000000 132.352 164.5780
307.000000 132.296 164.8964
311.000000 132.234 165.4376
315.000000 132.180 165.8848
320.000000 132.126 166.4899
325.000000 132.060 166.9678
330.000000 132.013 167.6271
335.000000 131.970 168.1066
340.000000 131.934 168.8530
345.000000 131.885 169.3309
350.000000 131.831 169.9415
355.000000 131.817 170.6074
360.000000 131.769 171.0116
365.000000 131.740 171.4605
370.000000 131.712 172.1843
375.000000 131.699 172.6248
382.000000 131.656 173.3272
387.000000 131.647 173.9221
395.000000 131.601 174.6783
400.000000 131.591 175.2677
406.000000 131.558 175.7595
412.000000 131.522 176.3016
418.000000 131.557 176.9003
425.000000 131.504 177.7083
431.000000 131.476 178.0543
437.000000 131.488 178.8898
444.000000 131.430 179.2012
450.000000 131.521 179.5875
455.000000 131.425 179.9272
462.000000 131.443 -179.7923
468.000000 131.490 -178.1235
475.000000 131.466 -177.5117
482.000000 131.367 -176.8881
487.000000 131.371 -176.5341
494.000000 131.245 -176.6642
500.000000 131.531 -175.9840
508.000000 131.446 -176.1324
515.000000 131.523 -174.7474
522.000000 131.244 -174.3525
530.000000 131.316 -174.0774
538.000000 131.517 -173.4088
545.000000 131.351 -173.2762
552.000000 131.380 -171.7344
560.000000 131.468 -172.0769
570.000000 131.506 -171.4647
580.000000 131.554 -171.0108
590.000000 131.581 -169.7969
600.000000 131.469 -168.3885
608.000000 131.543 -167.8778
615.000000 131.420 -167.2000
622.000000 131.388 -167.4202
630.000000 131.486 -167.0225
640.000000 131.489 -166.2111
650.000000 131.550 -164.9850
660.000000 131.658 -164.8047
670.000000 131.789 -164.4059
680.000000 131.790 -165.0803
690.000000 131.841 -163.2680
700.000000 131.898 -160.8670
710.000000 131.619 -160.3769
720.000000 131.595 -162.2289
730.000000 131.910 -159.6152
740.000000 131.675 -160.1674
750.000000 131.820 -158.6712
762.000000 131.783 -158.7906
775.000000 131.927 -157.3398
788.000000 131.894 -157.2560
800.000000 131.907 -155.7920
812.000000 132.012 -155.3170
825.000000 132.030 -154.2216
838.000000 132.128 -153.6872
850.000000 132.231 -153.2873
862.000000 132.345 -152.4735
875.000000 132.371 -151.5282
885.000000 132.461 -151.1529
900.000000 132.512 -150.5589
912.000000 132.597 -149.5954
925.000000 132.675 -149.1030
938.000000 132.744 -148.4972
950.000000 132.827 -147.8199
962.000000 132.905 -147.5375
975.000000 133.018 -147.2363
988.000000 133.127 -146.1078
1000.000000 133.179 -145.4723
1015.000000 133.374 -144.9337
1030.000000 133.471 -144.5504
1044.000000 133.587 -144.1575
1060.000000 133.772 -143.5627
1075.000000 133.917 -143.1828
1090.000000 133.992 -142.7493
1106.000000 134.149 -142.9788
1120.000000 134.280 -142.1064
1138.000000 134.401 -142.0491
1150.000000 134.448 -142.2286
1172.000000 134.616 -141.5378
1180.000000 134.670 -141.5899
1206.000000 134.944 -141.3443
1220.000000 134.992 -141.2424
1241.000000 135.103 -141.6100
1250.000000 135.209 -141.2695
1265.000000 135.286 -141.4700
1280.000000 135.355 -141.2854
1315.000000 135.598 -141.1910
1320.000000 135.617 -141.1620
1340.000000 135.727 -141.1243
1360.000000 135.822 -141.1100
1380.000000 135.944 -141.3257
1400.000000 136.009 -141.1751
1430.000000 136.173 -141.2298
1450.000000 136.274 -141.1411
1475.000000 136.376 -141.1542
1500.000000 136.506 -141.1355
1525.000000 136.620 -141.1183
1550.000000 136.720 -141.0823
1575.000000 136.844 -141.0169
1600.000000 136.953 -140.9840
1625.000000 137.057 -140.9846
1650.000000 137.159 -141.0240
1675.000000 137.282 -140.9652
1700.000000 137.401 -141.0118
1725.000000 137.511 -141.0722
1750.000000 137.620 -141.1510
1775.000000 137.730 -141.1425
1800.000000 137.849 -141.1507
1825.000000 137.967 -141.1888
1850.000000 138.084 -141.2785
1875.000000 138.200 -141.3674
1900.000000 138.316 -141.5266
1925.000000 138.438 -141.6157
1950.000000 138.551 -141.7666
1975.000000 138.681 -141.8948
2000.000000 138.799 -142.1399
2030.000000 138.945 -142.3902
2060.000000 139.086 -142.6681
2090.000000 139.237 -142.9861
2120.000000 139.385 -143.3432
2140.000000 139.475 -143.5846
2180.000000 139.671 -144.2034
2200.000000 139.769 -144.5109
2240.000000 139.962 -145.2341
2270.000000 140.099 -145.7575
2300.000000 140.234 -146.3779
2330.000000 140.377 -147.0439
2360.000000 140.504 -147.7193
2400.000000 140.674 -148.7629
2430.000000 140.796 -149.5478
2470.000000 140.953 -150.6666
2500.000000 141.060 -151.5931
2540.000000 141.195 -152.8485
2580.000000 141.320 -154.1305
2620.000000 141.432 -155.4816
2650.000000 141.507 -156.5435
2690.000000 141.596 -157.9508
2720.000000 141.648 -159.0020
2760.000000 141.710 -160.4353
2800.000000 141.763 -161.8994
2850.000000 141.804 -163.7145
2900.000000 141.830 -165.5152
2950.000000 141.834 -167.2352
3000.000000 141.828 -168.9687
3040.000000 141.791 -170.3338
3070.000000 141.774 -171.2971
3110.000000 141.730 -172.5745
3150.000000 141.676 -173.8558
3200.000000 141.607 -175.3266
3250.000000 141.516 -176.7380
3300.000000 141.424 -178.0906
3350.000000 141.324 -179.3687
3400.000000 141.226 179.4346
3450.000000 141.118 178.3511
3500.000000 140.996 177.2719
3550.000000 140.877 176.3038
3600.000000 140.751 175.3716
3650.000000 140.626 174.5342
3700.000000 140.503 173.7547
3750.000000 140.374 173.0395
3820.000000 140.198 172.1388
3870.000000 140.072 171.5142
3950.000000 139.868 170.5837
4000.000000 139.748 170.0981
4060.000000 139.595 169.5955
4120.000000 139.444 169.0721
4180.000000 139.306 168.6727
4250.000000 139.136 168.2079
4310.000000 138.988 167.8413
4370.000000 138.842 167.5265
4440.000000 138.677 167.2072
4500.000000 138.533 167.0301
4550.000000 138.427 166.8465
4620.000000 138.249 166.7315
4680.000000 138.114 166.5515
4750.000000 137.952 166.5428
4820.000000 137.790 166.4070
4870.000000 137.666 166.4431
4940.000000 137.512 166.5126
5000.000000 137.364 166.5621
5080.000000 137.184 166.7549
5150.000000 137.016 166.9982
5220.000000 136.864 167.2772
5300.000000 136.679 167.6462
5380.000000 136.495 168.0815
5450.000000 136.344 168.4926
5520.000000 136.197 169.0254
5600.000000 136.010 169.6308
5700.000000 135.815 170.5609
5800.000000 135.596 171.6069
5900.000000 135.399 172.6401
6000.000000 135.206 174.0553
6080.000000 135.069 175.2447
6150.000000 134.956 176.3086
6220.000000 134.868 177.4033
6300.000000 134.773 179.0065
6400.000000 134.698 -179.3513
6500.000000 134.669 -177.5872
6600.000000 134.654 -176.0182
6700.000000 134.651 -174.4505
6800.000000 134.650 -172.9629
6900.000000 134.659 -171.7745
7000.000000 134.695 -170.2221
7100.000000 134.749 -168.8060
7200.000000 134.823 -167.3649
7300.000000 134.932 -166.0916
7400.000000 135.068 -164.9479
7500.000000 135.226 -163.8823
7620.000000 135.417 -162.7905
7750.000000 135.696 -162.0640
7880.000000 136.006 -161.5129
8000.000000 136.322 -161.4353
8120.000000 136.641 -162.1606
8250.000000 137.007 -163.4007
8380.000000 137.346 -165.4496
8500.000000 137.599 -168.1684
8620.000000 137.787 -171.4005
8750.000000 137.829 -175.5504
8850.000000 137.761 -178.8566
9000.000000 137.447 176.1553
9120.000000 137.045 172.8615
9250.000000 136.505 169.9115
9380.000000 135.876 167.8111
9500.000000 135.302 166.6863
9620.000000 134.722 166.0871
9750.000000 134.132 166.3444
9880.000000 133.551 166.9382
10000.000000 133.092 168.3152
10150.000000 132.565 169.8231
10300.000000 132.085 172.1658
10440.000000 131.763 174.5252
10600.000000 131.458 177.3899
10750.000000 131.251 -179.8487
10900.000000 131.047 -177.0457
11060.000000 130.980 -174.0518
11200.000000 130.914 -171.6707
11380.000000 130.938 -168.6186
11500.000000 131.017 -166.6784
11720.000000 131.149 -163.3169
11800.000000 131.190 -162.1308
12060.000000 131.483 -158.3237
12200.000000 131.730 -156.4122
12410.000000 132.138 -153.5087
12500.000000 132.352 -152.6743
12650.000000 132.777 -151.0544
12800.000000 133.312 -149.8773
13150.000000 135.040 -150.6188
13200.000000 135.311 -151.3689
13400.000000 136.540 -156.7962
13600.000000 137.574 -167.3716
13800.000000 137.754 177.4129
14000.000000 136.747 162.9358
14300.000000 134.132 150.6382
14500.000000 132.417 147.9189
14750.000000 130.532 148.0828
15000.000000 129.025 149.8211
15250.000000 127.825 153.0422
15500.000000 127.051 156.1399
15750.000000 126.407 158.6539
16000.000000 125.955 160.7560
16250.000000 125.563 161.5602
16500.000000 125.191 162.0554
16750.000000 124.731 160.8348
17000.000000 124.109 158.3753
17250.000000 123.297 157.0204
17500.000000 122.227 155.6648
17750.000000 121.204 155.6963
18000.000000 120.157 156.7357
18250.000000 118.926 153.8174
18500.000000 117.115 157.7494
18750.000000 115.693 164.2722
19000.000000 115.286 167.4246
19250.000000 114.317 168.2814
19500.000000 111.718 163.4252
19750.000000 108.529 167.3836
