* Measurement data measured by REW V5.31.1
* Source: Microphone (USB Sound Device        ), MICROPHONE (Master Volume), L, volume: 0.250
* Format: 256k Log Swept Sine, 1 sweep at -20.0 dBFS with no timing reference
* Dated: Oct 31, 2024 2:37:31 PM
* REW Settings:
*  C-weighting compensation: Off
*  Target level: 75.0 dB
* Note: 
* Measurement: R E20 338
* Smoothing: None
* Frequency Step: 1/48 octave
* Start Frequency: 20.300 Hz
*
* Freq(Hz) SPL(dB) Phase(degrees)
20.299999 118.856 -154.9637
20.600000 118.893 -155.6678
20.900000 118.926 -156.3763
21.200001 118.953 -157.1374
21.400000 118.967 -157.6549
21.799999 118.986 -158.6687
22.000000 118.992 -159.1437
22.400000 119.004 -160.0038
22.700001 119.016 -160.5801
23.000000 119.032 -161.1257
23.299999 119.052 -161.6709
23.600000 119.072 -162.2335
24.000000 119.094 -163.0185
24.299999 119.104 -163.6198
24.700001 119.111 -164.4087
25.000000 119.113 -164.9743
25.400000 119.119 -165.6911
25.799999 119.129 -166.3872
26.200001 119.142 -167.0913
26.500000 119.151 -167.6312
26.900000 119.158 -168.3564
27.200001 119.159 -168.8896
27.600000 119.158 -169.5728
28.000000 119.157 -170.2312
28.500000 119.159 -171.0590
29.000000 119.160 -171.9156
29.500000 119.151 -172.7558
30.000000 119.136 -173.5065
30.400000 119.126 -174.0391
30.700001 119.122 -174.4238
31.100000 119.120 -174.9597
31.500000 119.116 -175.5410
32.000000 119.102 -176.3046
32.500000 119.081 -177.0405
33.000000 119.062 -177.7151
33.500000 119.052 -178.3607
34.000000 119.046 -179.0184
34.500000 119.038 -179.6874
35.000000 119.024 179.6549
35.500000 119.006 179.0125
36.000000 118.986 178.3698
36.500000 118.964 177.7247
37.000000 118.941 177.0980
37.500000 118.922 176.5029
38.200001 118.902 175.6903
38.700001 118.888 175.0969
39.500000 118.852 174.1694
40.000000 118.824 173.6449
40.599998 118.790 173.0567
41.200001 118.761 172.4568
41.799999 118.730 171.8254
42.500000 118.691 171.0819
43.099998 118.657 170.4700
43.700001 118.622 169.8946
44.400002 118.578 169.2566
45.000000 118.534 168.7039
45.500000 118.493 168.2304
46.200001 118.437 167.5731
46.799999 118.401 167.0135
47.500000 118.370 166.3332
48.200001 118.327 165.6948
48.700001 118.286 165.3120
49.400002 118.225 164.7927
50.000000 118.171 164.2591
50.799999 118.096 163.5220
51.500000 118.054 162.9726
52.200001 118.026 162.4315
53.000000 117.967 161.8495
53.799999 117.892 161.3916
54.500000 117.837 160.9090
55.200001 117.778 160.3246
56.000000 117.710 159.7633
57.000000 117.648 159.1367
58.000000 117.568 158.4370
59.000000 117.471 157.8420
60.000000 117.383 157.2689
60.799999 117.319 156.7153
61.500000 117.254 156.2179
62.200001 117.188 155.8468
63.000000 117.126 155.4797
64.000000 117.033 154.8768
65.000000 116.932 154.3546
66.000000 116.857 153.7757
67.000000 116.757 153.3325
68.000000 116.670 153.0252
69.000000 116.571 152.4666
70.000000 116.468 151.9924
71.000000 116.395 151.4967
72.000000 116.302 150.9926
73.000000 116.202 150.6942
74.000000 116.107 150.3502
75.000000 116.005 149.9600
76.199997 115.897 149.4456
77.500000 115.760 149.1619
78.800003 115.658 148.8733
80.000000 115.524 148.3705
81.199997 115.418 148.0796
82.500000 115.284 147.5862
83.800003 115.155 147.3855
85.000000 115.069 146.9677
86.199997 114.922 146.7679
87.500000 114.797 146.5577
88.500000 114.690 146.3198
90.000000 114.564 146.0813
91.199997 114.429 145.9189
92.500000 114.324 145.7668
93.800003 114.171 145.5585
95.000000 114.059 145.4219
96.199997 113.926 145.1745
97.500000 113.827 145.3108
98.800003 113.707 145.2103
100.000000 113.573 145.0691
101.500000 113.411 145.0240
103.000000 113.283 145.1074
104.400002 113.151 145.0680
106.000000 112.999 145.2110
107.500000 112.852 145.0547
109.000000 112.719 145.3842
110.599998 112.563 145.4072
112.000000 112.425 145.4909
113.800003 112.273 145.6647
115.000000 112.165 145.8228
117.199997 111.956 146.3320
118.000000 111.919 146.3341
120.599998 111.665 147.0610
122.000000 111.549 147.0818
124.099998 111.387 147.5269
125.000000 111.313 147.6177
126.500000 111.163 148.2605
128.000000 111.051 148.4563
131.500000 110.809 149.5058
132.000000 110.770 149.7024
134.000000 110.611 150.2909
136.000000 110.466 150.9070
138.000000 110.323 152.0161
140.000000 110.158 152.2927
143.000000 109.972 153.3637
145.000000 109.899 154.3076
147.500000 109.771 155.3230
150.000000 109.637 156.3383
152.500000 109.523 157.5769
155.000000 109.417 158.6397
157.500000 109.325 159.5091
160.000000 109.230 160.8832
162.500000 109.150 162.0350
165.000000 109.076 163.1086
167.500000 109.047 163.8619
170.000000 108.968 165.2849
172.500000 108.946 166.1230
175.000000 108.946 167.4641
177.500000 108.904 168.6057
180.000000 108.879 169.4589
182.500000 108.895 170.5890
185.000000 108.826 171.4814
187.500000 108.914 172.1849
190.000000 108.906 173.4846
192.500000 108.907 174.3411
195.000000 108.938 175.0052
197.500000 108.983 175.6913
200.000000 108.968 176.6877
203.000000 109.042 177.4941
206.000000 109.095 178.3934
209.000000 109.135 179.1743
212.000000 109.195 179.9818
214.000000 109.231 -179.5479
218.000000 109.331 -178.7484
220.000000 109.360 -178.0795
224.000000 109.420 -177.1935
227.000000 109.506 -176.6293
230.000000 109.540 -176.2039
233.000000 109.643 -175.8184
236.000000 109.678 -175.2648
240.000000 109.755 -174.8180
243.000000 109.794 -174.2374
247.000000 109.852 -173.8864
250.000000 109.928 -173.4753
254.000000 110.021 -173.3868
258.000000 110.101 -172.7442
262.000000 110.149 -172.5952
265.000000 110.248 -172.2167
269.000000 110.260 -172.1024
272.000000 110.284 -171.7953
276.000000 110.373 -171.4087
280.000000 110.430 -171.1844
285.000000 110.488 -171.1398
290.000000 110.548 -170.8027
295.000000 110.625 -170.7402
300.000000 110.649 -170.4247
304.000000 110.698 -170.4301
307.000000 110.762 -170.6915
311.000000 110.785 -170.4224
315.000000 110.805 -170.2195
320.000000 110.871 -170.0377
325.000000 110.876 -169.9062
330.000000 110.931 -169.8574
335.000000 110.983 -169.6503
340.000000 111.018 -169.6568
345.000000 110.995 -169.7286
350.000000 111.045 -169.5904
355.000000 111.054 -169.2640
360.000000 111.068 -169.4222
365.000000 111.141 -169.3335
370.000000 111.139 -169.3972
375.000000 111.102 -169.3142
382.000000 111.178 -168.9983
387.000000 111.149 -169.0824
395.000000 111.161 -168.9436
400.000000 111.188 -168.5943
406.000000 111.159 -168.7756
412.000000 111.189 -168.4750
418.000000 111.204 -168.4370
425.000000 111.199 -168.3883
431.000000 111.213 -168.0345
437.000000 111.210 -168.0581
444.000000 111.188 -167.9762
450.000000 111.163 -167.6343
455.000000 111.194 -167.7078
462.000000 111.205 -167.5449
468.000000 111.204 -167.1965
475.000000 111.213 -166.8067
482.000000 111.157 -166.8039
487.000000 111.203 -166.3173
494.000000 111.181 -166.3198
500.000000 111.183 -165.9620
508.000000 111.145 -165.9722
515.000000 111.174 -165.7148
522.000000 111.134 -165.2250
530.000000 111.136 -165.0675
538.000000 111.112 -164.7143
545.000000 111.105 -164.5581
552.000000 111.123 -164.2103
560.000000 111.089 -164.0083
570.000000 111.094 -163.2036
580.000000 111.083 -163.0490
590.000000 111.095 -162.4684
600.000000 111.074 -162.0429
608.000000 111.064 -161.4867
615.000000 111.049 -161.5739
622.000000 111.055 -160.9349
630.000000 111.081 -160.1958
640.000000 111.061 -160.0099
650.000000 111.066 -159.4798
660.000000 111.094 -159.0040
670.000000 111.071 -158.6534
680.000000 111.072 -157.8791
690.000000 111.105 -157.4065
700.000000 111.102 -156.7043
710.000000 111.071 -155.8730
720.000000 111.141 -155.8985
730.000000 111.179 -154.8775
740.000000 111.147 -154.3880
750.000000 111.176 -153.8250
762.000000 111.222 -153.1107
775.000000 111.258 -152.0790
788.000000 111.292 -151.7011
800.000000 111.310 -150.9659
812.000000 111.364 -150.2286
825.000000 111.464 -149.0373
838.000000 111.479 -148.4146
850.000000 111.565 -147.7176
862.000000 111.644 -146.9704
875.000000 111.740 -146.3281
885.000000 111.722 -145.6376
900.000000 111.827 -145.0353
912.000000 111.943 -144.3903
925.000000 111.982 -143.4758
938.000000 112.065 -143.1574
950.000000 112.174 -142.2525
962.000000 112.308 -141.9284
975.000000 112.364 -141.1510
988.000000 112.508 -140.6875
1000.000000 112.575 -141.0326
1015.000000 112.725 -139.8837
1030.000000 112.834 -139.2791
1044.000000 112.952 -138.7289
1060.000000 113.121 -138.0824
1075.000000 113.211 -137.8409
1090.000000 113.345 -137.4180
1106.000000 113.516 -137.2933
1120.000000 113.611 -137.1239
1138.000000 113.718 -136.7340
1150.000000 113.819 -136.3736
1172.000000 114.005 -136.4978
1180.000000 114.110 -136.2139
1206.000000 114.245 -135.9514
1220.000000 114.361 -136.0067
1241.000000 114.514 -135.8046
1250.000000 114.579 -135.7950
1265.000000 114.672 -135.8522
1280.000000 114.742 -135.7218
1315.000000 114.975 -135.6532
1320.000000 115.017 -135.6152
1340.000000 115.117 -135.5279
1360.000000 115.241 -135.5315
1380.000000 115.351 -135.3360
1400.000000 115.438 -135.3230
1430.000000 115.610 -135.2318
1450.000000 115.695 -135.2497
1475.000000 115.841 -135.0690
1500.000000 116.003 -135.1676
1525.000000 116.133 -135.0533
1550.000000 116.224 -134.8452
1575.000000 116.391 -134.8691
1600.000000 116.514 -134.9741
1625.000000 116.646 -134.8485
1650.000000 116.790 -134.8467
1675.000000 116.891 -134.9203
1700.000000 117.040 -134.9661
1725.000000 117.170 -134.9147
1750.000000 117.313 -134.9828
1775.000000 117.442 -135.2220
1800.000000 117.577 -135.1886
1825.000000 117.724 -135.3862
1850.000000 117.870 -135.3847
1875.000000 117.977 -135.6735
1900.000000 118.135 -135.8662
1925.000000 118.280 -136.1481
1950.000000 118.417 -136.4318
1975.000000 118.539 -136.5609
2000.000000 118.688 -136.6466
2030.000000 118.833 -137.4509
2060.000000 118.999 -137.8765
2090.000000 119.151 -138.7138
2120.000000 119.303 -139.1390
2140.000000 119.386 -139.4564
2180.000000 119.582 -140.3363
2200.000000 119.671 -140.8577
2240.000000 119.844 -141.7343
2270.000000 119.962 -142.5754
2300.000000 120.083 -143.3913
2330.000000 120.197 -144.1166
2360.000000 120.311 -145.1279
2400.000000 120.422 -146.2362
2430.000000 120.506 -147.0515
2470.000000 120.623 -148.3623
2500.000000 120.688 -149.2429
2540.000000 120.762 -150.5452
2580.000000 120.845 -151.6949
2620.000000 120.893 -152.8772
2650.000000 120.934 -153.8556
2690.000000 120.951 -155.0881
2720.000000 120.966 -155.9207
2760.000000 120.992 -157.0377
2800.000000 120.995 -158.0221
2850.000000 120.988 -159.3376
2900.000000 120.954 -160.5644
2950.000000 120.940 -161.7830
3000.000000 120.896 -162.8132
3040.000000 120.887 -163.5847
3070.000000 120.859 -164.2549
3110.000000 120.836 -165.0078
3150.000000 120.792 -165.5558
3200.000000 120.761 -166.2980
3250.000000 120.718 -167.0613
3300.000000 120.658 -167.6201
3350.000000 120.626 -168.2522
3400.000000 120.609 -168.7756
3450.000000 120.597 -169.3312
3500.000000 120.548 -169.6720
3550.000000 120.536 -170.0966
3600.000000 120.506 -170.6069
3650.000000 120.507 -171.0324
3700.000000 120.517 -171.3211
3750.000000 120.510 -171.7992
3820.000000 120.508 -172.2107
3870.000000 120.552 -172.7976
3950.000000 120.585 -173.4678
4000.000000 120.613 -174.2722
4060.000000 120.640 -174.4162
4120.000000 120.666 -175.1978
4180.000000 120.722 -175.7316
4250.000000 120.776 -176.6953
4310.000000 120.817 -177.7303
4370.000000 120.818 -178.4769
4440.000000 120.862 -179.8193
4500.000000 120.900 179.2762
4550.000000 120.889 178.2859
4620.000000 120.877 176.7946
4680.000000 120.885 175.6218
4750.000000 120.842 174.2323
4820.000000 120.787 172.7014
4870.000000 120.760 171.4046
4940.000000 120.665 170.0682
5000.000000 120.572 168.5656
5080.000000 120.354 166.9155
5150.000000 120.199 165.4833
5220.000000 120.013 164.1548
5300.000000 119.754 162.8037
5380.000000 119.467 161.9683
5450.000000 119.210 161.0276
5520.000000 118.925 160.3630
5600.000000 118.627 159.6962
5700.000000 118.256 159.4185
5800.000000 117.826 159.3379
5900.000000 117.463 159.8625
6000.000000 116.997 160.4538
6080.000000 116.763 160.7291
6150.000000 116.518 161.2560
6220.000000 116.286 162.1562
6300.000000 116.035 163.0967
6400.000000 115.719 164.5570
6500.000000 115.435 166.3092
6600.000000 115.205 167.8963
6700.000000 115.058 169.7152
6800.000000 114.837 171.4162
6900.000000 114.709 173.2641
7000.000000 114.532 176.1083
7100.000000 114.522 177.6446
7200.000000 114.441 -179.9102
7300.000000 114.554 -178.3952
7400.000000 114.458 -176.3495
7500.000000 114.489 -174.6398
7620.000000 114.633 -172.1557
7750.000000 114.814 -170.0829
7880.000000 114.973 -168.4983
8000.000000 115.176 -168.2378
8120.000000 115.712 -165.5510
8250.000000 116.227 -164.4992
8380.000000 116.673 -164.7419
8500.000000 117.305 -165.5104
8620.000000 117.861 -168.0771
8750.000000 118.501 -171.8792
8850.000000 118.853 -175.7188
9000.000000 119.133 176.2208
9120.000000 118.982 169.3503
9250.000000 118.561 162.0122
9380.000000 117.764 155.9953
9500.000000 116.889 152.6782
9620.000000 116.039 149.7597
9750.000000 114.995 148.7011
9880.000000 114.232 148.9263
10000.000000 113.428 149.4723
10150.000000 112.622 151.1803
10300.000000 111.773 154.0126
10440.000000 111.138 156.0118
10600.000000 110.680 160.2987
10750.000000 110.300 163.5269
10900.000000 110.002 167.0760
11060.000000 109.814 170.6300
11200.000000 109.718 174.3884
11380.000000 109.516 178.7550
11500.000000 109.731 -179.3597
11720.000000 109.880 -174.5683
11800.000000 110.022 -171.9754
12060.000000 110.629 -169.2215
12200.000000 111.020 -167.5200
12410.000000 111.585 -167.8416
12500.000000 111.707 -169.3162
12650.000000 112.079 -171.0891
12800.000000 112.176 -174.3810
13150.000000 112.604 -178.7157
13200.000000 112.656 -179.6713
13400.000000 112.690 171.7115
13600.000000 111.715 164.9434
13800.000000 110.658 162.0035
14000.000000 109.613 159.3046
14300.000000 108.015 157.5630
14500.000000 106.695 156.6154
14750.000000 105.554 159.5025
15000.000000 104.444 163.3933
15250.000000 103.255 166.9649
15500.000000 102.565 173.2268
15750.000000 101.628 175.4697
16000.000000 101.150 -178.4277
16250.000000 100.656 -173.1692
16500.000000 100.078 -169.8463
16750.000000 100.166 -164.9097
17000.000000 100.101 -157.0968
17250.000000 99.792 -155.3794
17500.000000 100.109 -154.8314
17750.000000 99.652 -150.4246
18000.000000 99.910 -150.3191
18250.000000 99.811 -150.0314
18500.000000 98.791 -139.7549
18750.000000 99.141 -140.7832
19000.000000 98.359 -141.6392
19250.000000 97.500 -139.3704
19500.000000 96.962 -135.6367
19750.000000 96.093 -133.3167
