* Measurement data measured by REW V5.31.1
* Source: Microphone (USB Sound Device        ), MICROPHONE (Master Volume), L, volume: 0.250
* Format: 256k Log Swept Sine, 1 sweep at -20.0 dBFS with no timing reference
* Dated: Dec 2, 2024 4:36:05 PM
* REW Settings:
*  C-weighting compensation: Off
*  Target level: 75.0 dB
* Note: 
* Measurement: L ET142 STOCK 425
* Smoothing: None
* Frequency Step: 1/48 octave
* Start Frequency: 20.300 Hz
*
* Freq(Hz) SPL(dB) Phase(degrees)
20.299999 120.993 -144.3644
20.600000 121.009 -145.2897
20.900000 121.020 -146.0788
21.200001 121.035 -146.8358
21.400000 121.049 -147.3398
21.799999 121.085 -148.3661
22.000000 121.105 -148.8923
22.400000 121.143 -149.9585
22.700001 121.166 -150.7436
23.000000 121.184 -151.4899
23.299999 121.198 -152.1870
23.600000 121.212 -152.8407
24.000000 121.232 -153.6720
24.299999 121.248 -154.2949
24.700001 121.270 -155.1542
25.000000 121.283 -155.8238
25.400000 121.294 -156.7318
25.799999 121.298 -157.6194
26.200001 121.296 -158.4566
26.500000 121.296 -159.0488
26.900000 121.296 -159.8047
27.200001 121.299 -160.3605
27.600000 121.302 -161.0991
28.000000 121.303 -161.8334
28.500000 121.302 -162.7294
29.000000 121.302 -163.5990
29.500000 121.305 -164.4691
30.000000 121.307 -165.3625
30.400000 121.302 -166.0815
30.700001 121.294 -166.6076
31.100000 121.281 -167.2745
31.500000 121.267 -167.8988
32.000000 121.253 -168.6367
32.500000 121.241 -169.3505
33.000000 121.230 -170.0452
33.500000 121.217 -170.7157
34.000000 121.204 -171.3712
34.500000 121.188 -172.0294
35.000000 121.168 -172.6890
35.500000 121.146 -173.3283
36.000000 121.126 -173.9392
36.500000 121.113 -174.5474
37.000000 121.102 -175.1855
37.500000 121.084 -175.8455
38.200001 121.043 -176.7091
38.700001 121.010 -177.2418
39.500000 120.971 -178.0573
40.000000 120.952 -178.6162
40.599998 120.924 -179.3147
41.200001 120.893 -179.9717
41.799999 120.864 179.4233
42.500000 120.831 178.7488
43.099998 120.800 178.2067
43.700001 120.770 177.6924
44.400002 120.736 177.0574
45.000000 120.698 176.4798
45.500000 120.661 176.0360
46.200001 120.622 175.4903
46.799999 120.604 175.0018
47.500000 120.576 174.3867
48.200001 120.525 173.8950
48.700001 120.487 173.6400
49.400002 120.447 173.2269
50.000000 120.410 172.6990
50.799999 120.343 171.9092
51.500000 120.291 171.3500
52.200001 120.264 170.8748
53.000000 120.240 170.2973
53.799999 120.189 169.7903
54.500000 120.133 169.5246
55.200001 120.092 169.2869
56.000000 120.048 168.7831
57.000000 119.956 167.9474
58.000000 119.875 167.3474
59.000000 119.846 166.8201
60.000000 119.794 166.2248
60.799999 119.726 165.8497
61.500000 119.673 165.5728
62.200001 119.632 165.2679
63.000000 119.592 164.8930
64.000000 119.543 164.4240
65.000000 119.480 163.9026
66.000000 119.397 163.4424
67.000000 119.330 163.0781
68.000000 119.273 162.6057
69.000000 119.198 162.2397
70.000000 119.138 161.9993
71.000000 119.079 161.6304
72.000000 119.017 161.2640
73.000000 118.959 160.9241
74.000000 118.902 160.6534
75.000000 118.852 160.2779
76.199997 118.767 159.8674
77.500000 118.698 159.5167
78.800003 118.603 159.0541
80.000000 118.529 158.8677
81.199997 118.459 158.5025
82.500000 118.376 158.2508
83.800003 118.331 157.9896
85.000000 118.233 157.6725
86.199997 118.168 157.4938
87.500000 118.100 157.0744
88.500000 118.019 157.0308
90.000000 117.952 156.6898
91.199997 117.860 156.4207
92.500000 117.807 156.3590
93.800003 117.738 155.9409
95.000000 117.666 155.7687
96.199997 117.603 155.6070
97.500000 117.542 155.4109
98.800003 117.470 155.2584
100.000000 117.384 155.1427
101.500000 117.326 155.1696
103.000000 117.297 154.5620
104.400002 117.093 154.6376
106.000000 117.162 155.2754
107.500000 117.041 153.1184
109.000000 116.610 154.5834
110.599998 117.219 155.1897
112.000000 116.900 152.4844
113.800003 116.525 155.6320
115.000000 116.800 155.1050
117.199997 116.545 152.6872
118.000000 116.510 153.4824
120.599998 116.397 153.9072
122.000000 116.345 153.3835
124.099998 116.328 153.5142
125.000000 116.265 153.3306
126.500000 116.108 153.1740
128.000000 115.996 153.5999
131.500000 116.003 153.7210
132.000000 115.974 153.6519
134.000000 115.837 152.7520
136.000000 115.744 152.9065
138.000000 115.601 152.8276
140.000000 115.740 153.8017
143.000000 115.564 153.6260
145.000000 115.498 153.5482
147.500000 115.434 153.7319
150.000000 115.306 153.4058
152.500000 115.216 153.3525
155.000000 115.099 153.5116
157.500000 114.990 153.6043
160.000000 114.899 153.6588
162.500000 114.810 153.7393
165.000000 114.729 153.8657
167.500000 114.723 154.0968
170.000000 114.595 154.6050
172.500000 114.434 155.0755
175.000000 114.290 154.9283
177.500000 114.227 154.1779
180.000000 114.351 154.0807
182.500000 114.316 155.8728
185.000000 114.088 156.4130
187.500000 114.008 155.3953
190.000000 114.101 154.3880
192.500000 114.289 155.5468
195.000000 113.980 157.4789
197.500000 113.662 156.0749
200.000000 113.933 153.1668
203.000000 114.314 157.8617
206.000000 113.744 159.1680
209.000000 113.603 157.7362
212.000000 113.450 156.9896
214.000000 113.551 156.9513
218.000000 113.407 157.5851
220.000000 113.378 157.6766
224.000000 113.289 158.0422
227.000000 113.190 158.1868
230.000000 113.152 158.3112
233.000000 113.094 158.8242
236.000000 113.035 159.0543
240.000000 112.974 159.1736
243.000000 112.907 159.5932
247.000000 112.867 159.6362
250.000000 112.809 159.9922
254.000000 112.744 160.5296
258.000000 112.622 160.6459
262.000000 112.572 161.2503
265.000000 112.538 161.3521
269.000000 112.478 162.0331
272.000000 112.420 161.9623
276.000000 112.372 162.4531
280.000000 112.355 162.6172
285.000000 112.243 163.1738
290.000000 112.178 163.6892
295.000000 112.132 164.1775
300.000000 112.071 164.8432
304.000000 111.982 164.8248
307.000000 111.990 165.3377
311.000000 111.930 165.4995
315.000000 111.885 165.8867
320.000000 111.847 166.4101
325.000000 111.753 167.2103
330.000000 111.686 167.1321
335.000000 111.677 167.8548
340.000000 111.631 168.0704
345.000000 111.561 168.6254
350.000000 111.538 169.4082
355.000000 111.481 169.5890
360.000000 111.432 170.4135
365.000000 111.411 171.1134
370.000000 111.391 171.6234
375.000000 111.400 172.0029
382.000000 111.325 172.5161
387.000000 111.320 172.8026
395.000000 111.319 173.5507
400.000000 111.290 173.9084
406.000000 111.242 174.3752
412.000000 111.223 174.7164
418.000000 111.179 175.3690
425.000000 111.136 175.6076
431.000000 111.133 176.3766
437.000000 111.045 177.0701
444.000000 111.050 177.3258
450.000000 111.089 177.3595
455.000000 111.037 178.2278
462.000000 110.963 178.8579
468.000000 110.948 179.2960
475.000000 110.939 179.6986
482.000000 110.901 -179.0495
487.000000 110.925 -179.9612
494.000000 110.841 -179.1261
500.000000 110.735 -178.1396
508.000000 110.724 -177.8235
515.000000 110.740 -177.2986
522.000000 110.795 -176.4825
530.000000 110.772 -175.8136
538.000000 110.764 -175.1749
545.000000 110.750 -174.2690
552.000000 110.774 -174.1260
560.000000 110.762 -173.6049
570.000000 110.787 -172.2120
580.000000 110.631 -171.4249
590.000000 110.753 -170.7387
600.000000 110.704 -169.8998
608.000000 110.708 -169.7598
615.000000 110.726 -168.9760
622.000000 110.735 -168.4157
630.000000 110.718 -167.7474
640.000000 110.731 -166.9856
650.000000 110.724 -166.3691
660.000000 110.727 -165.3952
670.000000 110.776 -164.5199
680.000000 110.753 -164.2313
690.000000 110.825 -163.1626
700.000000 110.852 -162.3389
710.000000 110.809 -161.5044
720.000000 110.853 -161.0812
730.000000 110.939 -160.2982
740.000000 110.901 -159.5317
750.000000 110.963 -158.5868
762.000000 111.037 -157.6970
775.000000 111.072 -156.9842
788.000000 111.125 -155.8129
800.000000 111.156 -154.7823
812.000000 111.195 -154.0885
825.000000 111.287 -153.2408
838.000000 111.338 -152.5293
850.000000 111.399 -151.6536
862.000000 111.493 -150.8115
875.000000 111.567 -149.6671
885.000000 111.635 -149.4533
900.000000 111.688 -148.3746
912.000000 111.792 -147.5119
925.000000 111.926 -146.6575
938.000000 111.965 -145.9208
950.000000 112.029 -145.4368
962.000000 112.160 -144.8104
975.000000 112.231 -144.1460
988.000000 112.351 -143.5774
1000.000000 112.338 -142.7288
1015.000000 112.577 -142.3744
1030.000000 112.718 -141.6744
1044.000000 112.843 -140.9348
1060.000000 112.966 -140.5346
1075.000000 113.090 -139.9563
1090.000000 113.222 -139.3884
1106.000000 113.357 -138.9398
1120.000000 113.457 -138.2731
1138.000000 113.581 -137.9103
1150.000000 113.716 -137.4072
1172.000000 113.882 -137.2356
1180.000000 113.947 -137.0050
1206.000000 114.155 -136.3960
1220.000000 114.245 -136.2898
1241.000000 114.420 -135.5698
1250.000000 114.498 -135.4108
1265.000000 114.551 -135.2768
1280.000000 114.710 -134.8042
1315.000000 114.965 -134.2266
1320.000000 115.030 -134.0179
1340.000000 115.163 -133.6254
1360.000000 115.315 -133.5619
1380.000000 115.477 -133.2368
1400.000000 115.644 -132.7722
1430.000000 115.866 -132.5962
1450.000000 116.037 -132.0163
1475.000000 116.230 -131.8123
1500.000000 116.460 -131.3924
1525.000000 116.641 -131.1630
1550.000000 116.853 -131.0287
1575.000000 117.091 -130.8657
1600.000000 117.308 -130.7205
1625.000000 117.524 -130.5569
1650.000000 117.730 -130.6098
1675.000000 117.986 -130.6501
1700.000000 118.233 -130.6239
1725.000000 118.458 -130.7549
1750.000000 118.735 -131.0471
1775.000000 118.954 -131.4006
1800.000000 119.206 -131.7809
1825.000000 119.442 -132.1879
1850.000000 119.703 -132.8381
1875.000000 119.946 -133.4598
1900.000000 120.220 -134.2092
1925.000000 120.444 -135.0961
1950.000000 120.702 -136.1547
1975.000000 120.943 -137.2182
2000.000000 121.132 -138.5466
2030.000000 121.430 -140.0723
2060.000000 121.657 -141.8766
2090.000000 121.888 -143.8482
2120.000000 122.070 -145.9034
2140.000000 122.168 -147.4570
2180.000000 122.344 -150.3580
2200.000000 122.395 -151.7814
2240.000000 122.483 -154.8486
2270.000000 122.495 -156.9873
2300.000000 122.486 -158.9941
2330.000000 122.461 -161.0046
2360.000000 122.405 -162.8902
2400.000000 122.314 -165.0459
2430.000000 122.257 -166.5994
2470.000000 122.145 -168.4075
2500.000000 122.065 -169.7697
2540.000000 121.997 -171.5502
2580.000000 121.921 -173.2554
2620.000000 121.823 -175.1931
2650.000000 121.720 -176.6100
2690.000000 121.571 -178.7129
2720.000000 121.406 179.8500
2760.000000 121.136 178.1648
2800.000000 120.828 176.9905
2850.000000 120.475 175.9686
2900.000000 120.131 175.5535
2950.000000 119.843 175.4310
3000.000000 119.549 175.4669
3040.000000 119.397 175.6165
3070.000000 119.288 175.8211
3110.000000 119.141 176.0782
3150.000000 119.035 176.3121
3200.000000 118.903 176.6341
3250.000000 118.782 176.9414
3300.000000 118.685 177.0187
3350.000000 118.585 177.1002
3400.000000 118.512 177.1617
3450.000000 118.414 177.4595
3500.000000 118.350 177.5254
3550.000000 118.248 177.5815
3600.000000 118.164 177.9203
3650.000000 118.114 178.0750
3700.000000 118.075 178.3831
3750.000000 117.978 178.7946
3820.000000 117.944 179.0085
3870.000000 117.913 179.5358
3950.000000 117.845 -179.8079
4000.000000 117.835 -179.8867
4060.000000 117.871 -179.1443
4120.000000 117.908 -178.7553
4180.000000 117.943 -178.5061
4250.000000 118.043 -178.4670
4310.000000 118.054 -178.5026
4370.000000 118.130 -178.4855
4440.000000 118.192 -178.7766
4500.000000 118.249 -179.1265
4550.000000 118.340 -179.2791
4620.000000 118.401 -179.9547
4680.000000 118.454 179.2256
4750.000000 118.517 178.4491
4820.000000 118.528 177.2217
4870.000000 118.512 176.3041
4940.000000 118.513 174.9494
5000.000000 118.530 173.9630
5080.000000 118.296 172.1466
5150.000000 118.138 170.7718
5220.000000 117.911 169.4480
5300.000000 117.653 168.4156
5380.000000 117.317 167.8141
5450.000000 117.072 167.6141
5520.000000 116.792 167.0048
5600.000000 116.454 166.9608
5700.000000 116.030 167.3409
5800.000000 115.507 167.8571
5900.000000 115.009 169.5693
6000.000000 114.469 172.1758
6080.000000 114.168 173.8656
6150.000000 114.001 176.6838
6220.000000 113.768 179.1301
6300.000000 113.734 -178.5506
6400.000000 113.839 -175.4644
6500.000000 113.817 -173.2377
6600.000000 113.877 -170.9352
6700.000000 113.819 -169.1010
6800.000000 113.782 -166.8163
6900.000000 113.649 -163.9143
7000.000000 113.744 -161.1685
7100.000000 113.737 -158.7270
7200.000000 113.883 -155.2100
7300.000000 114.082 -152.4790
7400.000000 114.396 -149.0484
7500.000000 114.621 -146.8443
7620.000000 115.183 -143.6411
7750.000000 115.817 -140.1091
7880.000000 116.663 -137.4743
8000.000000 117.469 -135.5401
8120.000000 118.609 -135.2194
8250.000000 119.905 -136.7336
8380.000000 121.385 -141.0224
8500.000000 122.738 -148.7025
8620.000000 123.689 -160.7762
8750.000000 123.747 -176.9008
8850.000000 123.020 171.9951
9000.000000 121.269 161.1534
9120.000000 119.815 157.1357
9250.000000 118.371 156.3143
9380.000000 117.153 157.5372
9500.000000 116.329 159.7110
9620.000000 115.687 162.2383
9750.000000 115.124 165.9229
9880.000000 114.774 168.7079
10000.000000 114.416 171.4382
10150.000000 114.261 175.3172
10300.000000 114.288 -179.6572
10440.000000 114.338 -176.0273
10600.000000 114.950 -172.4481
10750.000000 115.657 -170.1008
10900.000000 116.635 -169.6753
11060.000000 117.757 -172.5429
11200.000000 118.741 -178.4427
11380.000000 119.411 168.7879
11500.000000 119.202 159.3226
11720.000000 117.856 142.2929
11800.000000 116.949 137.8036
12060.000000 113.579 133.4502
12200.000000 112.020 134.9228
12410.000000 110.193 141.5692
12500.000000 109.741 145.5211
12650.000000 108.852 149.5419
12800.000000 108.316 155.1023
13150.000000 107.002 168.5383
13200.000000 106.889 171.1963
13400.000000 106.682 177.8305
13600.000000 106.760 -177.5120
13800.000000 106.465 -171.6938
14000.000000 106.531 -163.3499
14300.000000 106.919 -155.9515
14500.000000 107.588 -149.6193
14750.000000 108.792 -142.8248
15000.000000 110.337 -139.2766
15250.000000 112.412 -146.5067
15500.000000 113.370 -160.5963
15750.000000 112.657 -174.9123
16000.000000 111.415 178.4939
16250.000000 110.173 177.8273
16500.000000 109.372 179.5272
16750.000000 108.928 -177.8037
17000.000000 108.586 -173.9637
17250.000000 109.097 -176.0739
17500.000000 109.363 -174.6208
17750.000000 109.873 -178.7732
18000.000000 109.965 176.1473
18250.000000 109.687 167.9927
18500.000000 108.912 160.6255
18750.000000 108.074 156.7688
19000.000000 106.815 150.3130
19250.000000 105.458 142.1080
19500.000000 103.657 135.4615
19750.000000 100.633 132.3530
