* Measurement data measured by REW V5.31.1
* Source: Microphone (USB Sound Device        ), MICROPHONE (Master Volume), L, volume: 0.250
* Format: 256k Log Swept Sine, 1 sweep at -20.0 dBFS with no timing reference
* Dated: Dec 2, 2024 8:32:56 PM
* REW Settings:
*  C-weighting compensation: Off
*  Target level: 75.0 dB
* Note: 
* Measurement: L ET142 BLUE SANCAI 427
* Smoothing: None
* Frequency Step: 1/48 octave
* Start Frequency: 20.300 Hz
*
* Freq(Hz) SPL(dB) Phase(degrees)
20.299999 120.511 -140.1588
20.600000 120.547 -141.1149
20.900000 120.573 -141.9977
21.200001 120.595 -142.8759
21.400000 120.608 -143.4516
21.799999 120.634 -144.5663
22.000000 120.647 -145.1003
22.400000 120.677 -146.1204
22.700001 120.704 -146.8538
23.000000 120.734 -147.5753
23.299999 120.765 -148.2968
23.600000 120.795 -149.0223
24.000000 120.829 -149.9902
24.299999 120.847 -150.7027
24.700001 120.861 -151.6142
25.000000 120.867 -152.2617
25.400000 120.871 -153.0858
25.799999 120.878 -153.9012
26.200001 120.888 -154.7535
26.500000 120.896 -155.4284
26.900000 120.904 -156.3524
27.200001 120.906 -157.0205
27.600000 120.907 -157.8134
28.000000 120.912 -158.4602
28.500000 120.933 -159.1548
29.000000 120.960 -159.9654
29.500000 120.957 -161.0414
30.000000 120.903 -162.2564
30.400000 120.839 -163.1354
30.700001 120.798 -163.6754
31.100000 120.780 -164.2625
31.500000 120.807 -164.8026
32.000000 120.877 -165.5533
32.500000 120.927 -166.3516
33.000000 120.930 -167.0272
33.500000 120.900 -167.5516
34.000000 120.866 -168.1177
34.500000 120.830 -168.8880
35.000000 120.788 -169.7600
35.500000 120.752 -170.4683
36.000000 120.746 -170.9132
36.500000 120.774 -171.2605
37.000000 120.806 -171.7304
37.500000 120.808 -172.3576
38.200001 120.764 -173.3127
38.700001 120.726 -173.9866
39.500000 120.673 -175.0642
40.000000 120.636 -175.6433
40.599998 120.600 -176.1850
41.200001 120.595 -176.7393
41.799999 120.605 -177.4608
42.500000 120.597 -178.3223
43.099998 120.569 -178.8299
43.700001 120.532 -179.2024
44.400002 120.475 -179.7571
45.000000 120.423 179.5751
45.500000 120.394 178.9506
46.200001 120.382 178.1363
46.799999 120.382 177.6432
47.500000 120.366 177.3271
48.200001 120.325 177.0248
48.700001 120.284 176.6692
49.400002 120.223 176.0063
50.000000 120.187 175.4348
50.799999 120.157 174.8116
51.500000 120.125 174.3958
52.200001 120.086 173.9875
53.000000 120.043 173.3666
53.799999 119.996 172.7086
54.500000 119.956 172.3021
55.200001 119.923 171.9614
56.000000 119.879 171.4434
57.000000 119.813 170.7232
58.000000 119.766 170.1064
59.000000 119.720 169.5485
60.000000 119.664 169.0116
60.799999 119.607 168.5576
61.500000 119.546 168.2184
62.200001 119.492 167.9507
63.000000 119.451 167.5873
64.000000 119.402 167.0000
65.000000 119.343 166.5244
66.000000 119.285 166.1039
67.000000 119.221 165.6903
68.000000 119.168 165.2637
69.000000 119.102 164.7695
70.000000 119.035 164.4438
71.000000 118.992 164.0730
72.000000 118.930 163.6975
73.000000 118.881 163.4225
74.000000 118.829 163.0197
75.000000 118.760 162.7289
76.199997 118.696 162.2768
77.500000 118.590 161.7893
78.800003 118.552 161.6677
80.000000 118.492 161.2485
81.199997 118.392 160.9506
82.500000 118.324 160.4852
83.800003 118.254 160.1749
85.000000 118.180 159.8885
86.199997 118.107 159.7427
87.500000 118.054 159.4067
88.500000 117.985 159.2020
90.000000 117.942 158.7936
91.199997 117.862 158.6179
92.500000 117.780 158.4347
93.800003 117.714 158.1169
95.000000 117.648 158.0361
96.199997 117.594 157.7723
97.500000 117.489 157.4196
98.800003 117.470 157.4340
100.000000 117.372 157.2547
101.500000 117.312 157.0639
103.000000 117.250 156.7800
104.400002 117.175 156.7206
106.000000 117.088 156.5067
107.500000 116.977 156.5075
109.000000 116.910 156.9561
110.599998 116.850 155.9002
112.000000 116.794 156.1451
113.800003 116.706 155.9856
115.000000 116.688 156.3710
117.199997 116.556 155.5674
118.000000 116.638 154.9290
120.599998 116.719 158.5341
122.000000 116.251 154.9282
124.099998 116.330 154.9040
125.000000 116.218 155.2465
126.500000 116.162 154.8713
128.000000 116.118 155.1152
131.500000 115.987 154.8829
132.000000 115.963 154.8978
134.000000 115.860 155.0015
136.000000 115.791 154.8716
138.000000 115.700 154.8500
140.000000 115.606 154.0931
143.000000 115.509 154.7964
145.000000 115.442 154.8140
147.500000 115.340 154.8906
150.000000 115.276 154.8234
152.500000 115.176 155.0417
155.000000 115.042 154.9317
157.500000 114.990 155.1902
160.000000 114.888 155.2681
162.500000 114.794 155.2871
165.000000 114.721 155.4342
167.500000 114.642 155.4619
170.000000 114.536 155.7284
172.500000 114.479 155.6484
175.000000 114.374 155.9855
177.500000 114.307 156.2643
180.000000 114.222 156.6613
182.500000 114.166 156.7748
185.000000 114.078 157.1190
187.500000 114.053 157.4280
190.000000 114.030 157.7937
192.500000 114.068 157.8475
195.000000 113.996 158.4153
197.500000 113.869 158.6527
200.000000 113.891 158.4645
203.000000 113.866 158.9005
206.000000 113.756 159.0787
209.000000 113.803 158.7968
212.000000 113.696 159.1859
214.000000 113.650 158.9699
218.000000 113.564 159.0037
220.000000 113.514 159.0996
224.000000 113.444 159.3391
227.000000 113.387 159.5780
230.000000 113.325 159.6287
233.000000 113.240 159.9112
236.000000 113.173 160.2587
240.000000 113.093 160.4422
243.000000 113.021 160.7460
247.000000 113.004 161.0876
250.000000 112.972 161.2826
254.000000 112.871 161.5072
258.000000 112.795 161.8057
262.000000 112.754 162.1218
265.000000 112.680 162.2861
269.000000 112.638 162.5321
272.000000 112.618 162.8891
276.000000 112.548 163.3448
280.000000 112.471 163.6028
285.000000 112.399 164.0168
290.000000 112.332 164.3816
295.000000 112.271 165.0109
300.000000 112.198 165.3984
304.000000 112.131 165.5262
307.000000 112.118 166.1351
311.000000 112.067 166.1100
315.000000 112.047 166.5872
320.000000 111.991 167.2911
325.000000 111.871 167.2740
330.000000 111.906 167.5051
335.000000 111.843 168.7169
340.000000 111.815 168.5829
345.000000 111.736 169.3345
350.000000 111.700 169.4885
355.000000 111.628 170.1706
360.000000 111.659 170.4717
365.000000 111.546 170.4891
370.000000 111.590 171.2410
375.000000 111.596 171.7281
382.000000 111.400 172.3833
387.000000 111.562 173.9659
395.000000 111.440 173.9695
400.000000 111.383 174.4206
406.000000 111.326 174.7861
412.000000 111.277 174.9330
418.000000 111.214 175.1515
425.000000 111.219 176.1080
431.000000 111.181 176.5723
437.000000 111.139 176.9918
444.000000 111.128 177.6377
450.000000 111.080 178.2941
455.000000 111.033 178.5896
462.000000 111.038 179.0523
468.000000 111.005 179.9717
475.000000 111.036 -179.7672
482.000000 110.951 -179.0652
487.000000 110.931 -178.7417
494.000000 110.923 -178.2816
500.000000 110.964 -177.6485
508.000000 110.914 -176.9953
515.000000 110.911 -176.4966
522.000000 110.909 -175.7170
530.000000 110.945 -175.1961
538.000000 110.869 -174.4651
545.000000 110.889 -174.0817
552.000000 110.872 -173.4907
560.000000 110.866 -172.8331
570.000000 110.859 -172.1382
580.000000 110.862 -171.4187
590.000000 110.829 -170.4094
600.000000 110.849 -169.7540
608.000000 110.857 -169.1355
615.000000 110.801 -168.6058
622.000000 110.851 -168.0662
630.000000 110.858 -167.7703
640.000000 110.811 -166.7203
650.000000 110.819 -166.2219
660.000000 110.860 -165.0905
670.000000 110.908 -164.5105
680.000000 110.876 -163.2002
690.000000 110.909 -162.7274
700.000000 110.918 -162.1011
710.000000 110.953 -161.3762
720.000000 110.975 -160.8856
730.000000 110.997 -160.0635
740.000000 111.069 -159.4748
750.000000 111.086 -158.8457
762.000000 111.076 -157.7227
775.000000 111.189 -156.7124
788.000000 111.174 -155.9677
800.000000 111.237 -155.0265
812.000000 111.312 -154.1132
825.000000 111.375 -153.2180
838.000000 111.456 -152.2158
850.000000 111.510 -151.3707
862.000000 111.605 -150.7239
875.000000 111.688 -149.7533
885.000000 111.700 -149.3067
900.000000 111.769 -148.3128
912.000000 111.878 -147.3810
925.000000 112.021 -146.7554
938.000000 112.069 -146.0502
950.000000 112.143 -145.4964
962.000000 112.248 -144.7715
975.000000 112.381 -144.0014
988.000000 112.462 -143.4735
1000.000000 112.593 -143.9123
1015.000000 112.689 -142.5011
1030.000000 112.855 -141.5349
1044.000000 112.932 -141.1335
1060.000000 113.059 -140.5300
1075.000000 113.184 -140.0920
1090.000000 113.342 -139.4166
1106.000000 113.462 -138.9788
1120.000000 113.555 -138.6810
1138.000000 113.701 -138.1710
1150.000000 113.774 -137.9222
1172.000000 113.973 -137.5347
1180.000000 114.040 -137.1843
1206.000000 114.251 -136.5404
1220.000000 114.372 -136.1646
1241.000000 114.530 -135.8896
1250.000000 114.586 -135.4636
1265.000000 114.738 -135.1693
1280.000000 114.805 -135.1809
1315.000000 115.086 -134.3876
1320.000000 115.116 -134.3915
1340.000000 115.269 -134.0442
1360.000000 115.392 -133.7280
1380.000000 115.581 -133.3579
1400.000000 115.721 -132.8345
1430.000000 115.951 -132.6399
1450.000000 116.104 -132.2624
1475.000000 116.307 -131.9572
1500.000000 116.501 -131.8147
1525.000000 116.730 -131.4515
1550.000000 116.936 -131.4004
1575.000000 117.118 -131.0612
1600.000000 117.346 -130.9755
1625.000000 117.597 -130.9735
1650.000000 117.818 -130.9844
1675.000000 118.030 -130.9734
1700.000000 118.293 -130.9463
1725.000000 118.521 -131.0761
1750.000000 118.762 -131.4167
1775.000000 119.006 -131.6163
1800.000000 119.264 -132.0306
1825.000000 119.512 -132.4302
1850.000000 119.743 -133.1409
1875.000000 120.012 -133.8347
1900.000000 120.248 -134.4263
1925.000000 120.483 -135.5507
1950.000000 120.740 -136.3695
1975.000000 120.991 -137.5853
2000.000000 121.243 -138.7385
2030.000000 121.464 -140.4160
2060.000000 121.697 -142.2293
2090.000000 121.915 -144.2663
2120.000000 122.103 -146.3862
2140.000000 122.193 -147.8362
2180.000000 122.363 -150.6967
2200.000000 122.431 -152.2688
2240.000000 122.500 -155.1991
2270.000000 122.512 -157.4044
2300.000000 122.483 -159.4024
2330.000000 122.431 -161.3197
2360.000000 122.396 -163.1266
2400.000000 122.294 -165.2919
2430.000000 122.215 -166.8078
2470.000000 122.126 -168.5119
2500.000000 122.073 -169.8021
2540.000000 121.987 -171.5157
2580.000000 121.897 -173.3686
2620.000000 121.803 -175.3005
2650.000000 121.697 -176.6420
2690.000000 121.523 -178.6755
2720.000000 121.358 179.7811
2760.000000 121.087 178.3643
2800.000000 120.799 177.2620
2850.000000 120.441 176.3780
2900.000000 120.102 176.1391
2950.000000 119.822 176.0748
3000.000000 119.560 176.0707
3040.000000 119.427 176.7004
3070.000000 119.331 176.8513
3110.000000 119.224 177.0868
3150.000000 119.118 177.5184
3200.000000 119.019 177.6708
3250.000000 118.917 177.7320
3300.000000 118.881 177.6998
3350.000000 118.773 178.1284
3400.000000 118.690 178.0731
3450.000000 118.626 178.0771
3500.000000 118.546 178.0517
3550.000000 118.490 178.1470
3600.000000 118.406 178.3000
3650.000000 118.348 178.4833
3700.000000 118.301 178.6540
3750.000000 118.235 178.8237
3820.000000 118.188 179.0539
3870.000000 118.165 179.2057
3950.000000 118.141 179.8556
4000.000000 118.126 179.4028
4060.000000 118.202 -179.9986
4120.000000 118.218 -179.6117
4180.000000 118.239 -179.7762
4250.000000 118.302 -179.8576
4310.000000 118.321 179.9407
4370.000000 118.324 179.8179
4440.000000 118.372 179.6345
4500.000000 118.440 179.4114
4550.000000 118.473 179.1244
4620.000000 118.538 178.3177
4680.000000 118.602 177.7315
4750.000000 118.615 176.7040
4820.000000 118.666 175.2928
4870.000000 118.639 174.4702
4940.000000 118.591 173.0034
5000.000000 118.495 171.3650
5080.000000 118.345 170.0582
5150.000000 118.104 168.4876
5220.000000 117.857 167.4531
5300.000000 117.528 166.7179
5380.000000 117.217 166.5054
5450.000000 116.981 166.1908
5520.000000 116.704 166.3830
5600.000000 116.356 166.1336
5700.000000 115.939 166.3897
5800.000000 115.427 167.0879
5900.000000 114.989 168.3167
6000.000000 114.425 170.4173
6080.000000 114.088 172.8884
6150.000000 113.959 175.4579
6220.000000 113.872 177.6573
6300.000000 113.752 -179.6703
6400.000000 113.809 -176.9083
6500.000000 113.687 -174.6925
6600.000000 113.671 -172.7060
6700.000000 113.689 -170.7730
6800.000000 113.550 -168.0475
6900.000000 113.613 -165.5122
7000.000000 113.546 -162.9344
7100.000000 113.615 -159.6746
7200.000000 113.768 -156.8770
7300.000000 113.957 -153.7884
7400.000000 114.139 -151.2210
7500.000000 114.378 -148.7533
7620.000000 114.784 -145.1411
7750.000000 115.309 -141.8957
7880.000000 116.078 -138.5212
8000.000000 116.849 -136.3204
8120.000000 117.897 -136.2242
8250.000000 119.068 -136.0537
8380.000000 120.376 -138.3030
8500.000000 121.744 -143.4501
8620.000000 122.957 -152.7798
8750.000000 123.663 -167.4844
8850.000000 123.354 -179.6200
9000.000000 122.006 166.5869
9120.000000 120.567 160.6754
9250.000000 119.099 158.3246
9380.000000 117.887 158.2333
9500.000000 116.979 159.5848
9620.000000 116.152 161.4890
9750.000000 115.531 163.7312
9880.000000 115.011 166.0479
10000.000000 114.584 168.8831
10150.000000 114.298 173.5110
10300.000000 114.129 178.2677
10440.000000 114.165 -177.5710
10600.000000 114.581 -173.5431
10750.000000 115.180 -170.7689
10900.000000 115.995 -168.9626
11060.000000 117.044 -169.9256
11200.000000 118.119 -173.6606
11380.000000 119.277 176.8081
11500.000000 119.569 167.2986
11720.000000 118.736 147.3932
11800.000000 117.862 141.6653
12060.000000 114.557 134.3537
12200.000000 112.967 135.3953
12410.000000 111.210 139.1237
12500.000000 110.416 143.1257
12650.000000 109.388 146.7679
12800.000000 108.659 151.8955
13150.000000 107.256 164.2914
13200.000000 107.323 167.4952
13400.000000 106.839 174.6812
13600.000000 106.649 178.9003
13800.000000 106.291 -174.6241
14000.000000 106.267 -168.8369
14300.000000 106.549 -156.5786
14500.000000 106.925 -149.1227
14750.000000 108.225 -142.4671
15000.000000 109.764 -138.5416
15250.000000 111.909 -141.1872
15500.000000 113.539 -152.5221
15750.000000 113.567 -168.0533
16000.000000 112.501 -178.5314
16250.000000 111.409 177.0019
16500.000000 110.397 175.6901
16750.000000 109.641 177.2606
17000.000000 109.520 179.1119
17250.000000 109.529 -179.9831
17500.000000 110.043 177.3724
17750.000000 109.809 172.0668
18000.000000 109.334 167.8369
18250.000000 108.748 162.5264
18500.000000 107.613 157.6385
18750.000000 106.576 154.3671
19000.000000 105.486 151.5150
19250.000000 104.056 147.3640
19500.000000 102.405 144.6658
19750.000000 100.007 144.2530
