* Measurement data measured by REW V5.31.1
* Source: Microphone (USB Sound Device        ), MICROPHONE (Master Volume), L, volume: 0.250
* Format: 256k Log Swept Sine, 1 sweep at -20.0 dBFS with no timing reference
* Dated: Dec 2, 2024 8:36:42 PM
* REW Settings:
*  C-weighting compensation: Off
*  Target level: 75.0 dB
* Note: 
* Measurement: R ET142 BLUE stock 429
* Smoothing: None
* Frequency Step: 1/48 octave
* Start Frequency: 20.300 Hz
*
* Freq(Hz) SPL(dB) Phase(degrees)
20.299999 121.150 -148.8785
20.600000 121.174 -149.7188
20.900000 121.191 -150.5012
21.200001 121.207 -151.3002
21.400000 121.217 -151.8360
21.799999 121.233 -152.8891
22.000000 121.240 -153.3932
22.400000 121.255 -154.3368
22.700001 121.268 -154.9959
23.000000 121.285 -155.6394
23.299999 121.301 -156.2961
23.600000 121.315 -156.9775
24.000000 121.323 -157.9138
24.299999 121.323 -158.6044
24.700001 121.320 -159.4684
25.000000 121.323 -160.0707
25.400000 121.337 -160.8488
25.799999 121.357 -161.6516
26.200001 121.366 -162.4755
26.500000 121.360 -163.0618
26.900000 121.340 -163.7462
27.200001 121.327 -164.1953
27.600000 121.327 -164.8038
28.000000 121.344 -165.5724
28.500000 121.355 -166.7819
29.000000 121.323 -167.8521
29.500000 121.287 -168.2689
30.000000 121.328 -168.0995
30.400000 121.428 -168.0484
30.700001 121.511 -168.3093
31.100000 121.574 -169.1054
31.500000 121.546 -170.1934
32.000000 121.402 -171.4542
32.500000 121.240 -172.3153
33.000000 121.158 -173.0186
33.500000 121.156 -173.9049
34.000000 121.172 -174.9158
34.500000 121.170 -175.7303
35.000000 121.156 -176.2417
35.500000 121.138 -176.6466
36.000000 121.102 -177.1477
36.500000 121.042 -177.7422
37.000000 120.975 -178.3194
37.500000 120.929 -178.8271
38.200001 120.918 -179.4906
38.700001 120.936 179.9548
39.500000 120.937 178.7219
40.000000 120.884 177.8778
40.599998 120.786 177.1684
41.200001 120.731 176.8810
41.799999 120.749 176.6108
42.500000 120.777 175.9796
43.099998 120.750 175.4305
43.700001 120.706 175.0115
44.400002 120.665 174.4204
45.000000 120.624 173.7658
45.500000 120.585 173.2741
46.200001 120.546 172.7360
46.799999 120.522 172.2874
47.500000 120.477 171.7277
48.200001 120.417 171.1929
48.700001 120.378 170.8114
49.400002 120.336 170.2534
50.000000 120.309 169.7790
50.799999 120.269 169.1949
51.500000 120.221 168.7717
52.200001 120.169 168.4040
53.000000 120.111 167.9241
53.799999 120.050 167.4146
54.500000 120.004 167.0018
55.200001 119.962 166.5519
56.000000 119.904 166.0458
57.000000 119.844 165.5828
58.000000 119.797 165.1147
59.000000 119.725 164.6352
60.000000 119.649 164.1000
60.799999 119.590 163.6337
61.500000 119.542 163.3022
62.200001 119.501 163.0248
63.000000 119.453 162.6728
64.000000 119.384 162.1959
65.000000 119.321 161.7936
66.000000 119.256 161.3788
67.000000 119.169 160.9717
68.000000 119.101 160.6317
69.000000 119.055 160.2658
70.000000 118.989 159.9240
71.000000 118.914 159.6242
72.000000 118.861 159.1948
73.000000 118.800 158.7900
74.000000 118.733 158.6293
75.000000 118.668 158.3920
76.199997 118.588 157.9373
77.500000 118.494 157.7137
78.800003 118.442 157.4298
80.000000 118.355 156.6842
81.199997 118.284 156.6307
82.500000 118.222 156.6129
83.800003 118.126 156.2139
85.000000 118.038 155.7853
86.199997 117.975 155.7491
87.500000 117.904 155.5005
88.500000 117.837 155.3426
90.000000 117.775 155.2547
91.199997 117.694 154.9005
92.500000 117.601 154.6150
93.800003 117.545 154.4339
95.000000 117.465 154.3723
96.199997 117.405 154.1257
97.500000 117.326 154.0349
98.800003 117.262 153.7963
100.000000 117.177 153.6585
101.500000 117.127 153.4558
103.000000 117.064 153.4138
104.400002 116.959 153.1722
106.000000 116.896 153.0819
107.500000 116.803 153.0215
109.000000 116.739 152.6147
110.599998 116.664 152.9793
112.000000 116.581 152.4895
113.800003 116.587 153.1095
115.000000 116.311 153.0106
117.199997 116.363 152.4166
118.000000 116.363 155.2612
120.599998 114.411 151.1490
122.000000 116.507 150.6841
124.099998 116.030 152.7874
125.000000 115.917 151.2680
126.500000 116.037 152.6338
128.000000 115.812 152.4010
131.500000 115.700 152.4567
132.000000 115.687 152.3678
134.000000 115.614 152.2739
136.000000 115.551 152.2698
138.000000 115.445 152.4346
140.000000 115.399 151.9192
143.000000 115.271 152.3876
145.000000 115.185 152.5253
147.500000 115.081 152.5184
150.000000 115.016 152.6707
152.500000 114.906 152.7792
155.000000 114.835 152.9203
157.500000 114.738 153.0057
160.000000 114.645 153.0766
162.500000 114.574 153.1777
165.000000 114.499 153.1930
167.500000 114.384 153.5442
170.000000 114.345 153.5793
172.500000 114.240 153.8353
175.000000 114.204 153.9207
177.500000 114.084 153.9387
180.000000 114.064 154.4258
182.500000 113.981 154.1338
185.000000 113.876 154.7242
187.500000 113.889 154.6709
190.000000 113.762 154.8680
192.500000 113.717 155.2247
195.000000 113.674 155.1883
197.500000 113.575 155.6374
200.000000 113.499 155.8671
203.000000 113.454 156.1165
206.000000 113.387 156.3829
209.000000 113.295 156.5114
212.000000 113.220 156.7803
214.000000 113.147 156.8229
218.000000 113.071 157.2407
220.000000 113.077 157.4466
224.000000 112.965 157.7299
227.000000 112.921 158.1400
230.000000 112.878 158.2449
233.000000 112.772 158.4066
236.000000 112.722 159.0387
240.000000 112.662 159.4176
243.000000 112.606 159.4846
247.000000 112.521 160.1093
250.000000 112.502 160.4189
254.000000 112.441 160.6506
258.000000 112.375 161.2188
262.000000 112.345 161.5979
265.000000 112.316 161.5352
269.000000 112.124 162.2027
272.000000 112.145 162.2482
276.000000 112.186 163.7884
280.000000 112.147 161.9101
285.000000 112.088 164.8517
290.000000 111.921 163.1779
295.000000 111.884 164.9441
300.000000 111.907 164.9014
304.000000 111.822 165.1628
307.000000 111.841 165.5187
311.000000 111.719 167.1006
315.000000 111.689 166.0880
320.000000 111.637 166.7894
325.000000 111.621 166.5291
330.000000 111.532 168.3424
335.000000 111.563 167.1706
340.000000 111.375 168.0001
345.000000 111.367 169.1425
350.000000 111.335 169.4986
355.000000 111.292 169.9276
360.000000 111.246 170.3487
365.000000 111.241 170.3954
370.000000 111.256 171.0640
375.000000 111.142 171.7249
382.000000 111.181 172.4724
387.000000 111.054 172.8976
395.000000 110.989 173.3614
400.000000 110.992 173.9915
406.000000 110.950 174.5412
412.000000 110.935 174.9159
418.000000 110.882 175.3995
425.000000 110.865 175.8955
431.000000 110.848 176.5062
437.000000 110.866 177.3796
444.000000 110.885 177.9064
450.000000 110.664 178.5174
455.000000 110.646 178.9802
462.000000 110.714 178.8723
468.000000 110.653 -179.5114
475.000000 110.603 -179.6796
482.000000 110.717 -178.2513
487.000000 110.635 -177.8276
494.000000 110.665 -177.7089
500.000000 110.621 -177.1747
508.000000 110.638 -176.9576
515.000000 110.514 -175.8461
522.000000 110.626 -175.7859
530.000000 110.505 -174.3664
538.000000 110.553 -173.8880
545.000000 110.602 -173.7942
552.000000 110.448 -173.1455
560.000000 110.499 -171.6045
570.000000 110.701 -170.5464
580.000000 110.625 -169.8637
590.000000 110.593 -170.9191
600.000000 110.426 -170.2321
608.000000 110.562 -168.7799
615.000000 110.595 -168.4366
622.000000 110.661 -167.0937
630.000000 110.434 -166.2526
640.000000 110.543 -165.5286
650.000000 110.515 -165.1313
660.000000 110.590 -164.4574
670.000000 110.545 -163.3224
680.000000 110.619 -163.2793
690.000000 110.611 -161.7802
700.000000 110.646 -161.1904
710.000000 110.689 -160.6645
720.000000 110.713 -159.6605
730.000000 110.746 -159.0828
740.000000 110.821 -158.0638
750.000000 110.812 -157.2869
762.000000 110.852 -156.7842
775.000000 110.855 -155.5478
788.000000 110.947 -154.7638
800.000000 110.971 -153.7030
812.000000 111.029 -152.8779
825.000000 111.127 -151.7969
838.000000 111.203 -150.7759
850.000000 111.241 -150.0803
862.000000 111.371 -149.2617
875.000000 111.428 -148.2579
885.000000 111.476 -147.5275
900.000000 111.599 -146.9033
912.000000 111.665 -145.8842
925.000000 111.739 -145.3126
938.000000 111.895 -144.5750
950.000000 111.947 -144.0106
962.000000 112.064 -143.3910
975.000000 112.154 -142.3790
988.000000 112.294 -142.0675
1000.000000 112.414 -141.9595
1015.000000 112.489 -140.6378
1030.000000 112.630 -139.7264
1044.000000 112.736 -139.4822
1060.000000 112.890 -138.7584
1075.000000 113.048 -138.0689
1090.000000 113.133 -137.7177
1106.000000 113.304 -137.1445
1120.000000 113.416 -136.6487
1138.000000 113.572 -136.2144
1150.000000 113.687 -135.7578
1172.000000 113.841 -135.3316
1180.000000 113.911 -135.1031
1206.000000 114.125 -134.4100
1220.000000 114.210 -134.1281
1241.000000 114.454 -133.9520
1250.000000 114.496 -133.5821
1265.000000 114.576 -133.3354
1280.000000 114.729 -132.9451
1315.000000 115.023 -132.2088
1320.000000 115.047 -132.2001
1340.000000 115.211 -131.6878
1360.000000 115.376 -131.3167
1380.000000 115.531 -131.2091
1400.000000 115.691 -130.7985
1430.000000 115.910 -130.5371
1450.000000 116.075 -130.2568
1475.000000 116.349 -129.8793
1500.000000 116.586 -129.5102
1525.000000 116.734 -129.1028
1550.000000 116.989 -129.2003
1575.000000 117.201 -129.0379
1600.000000 117.426 -128.8499
1625.000000 117.674 -128.6886
1650.000000 117.924 -128.8968
1675.000000 118.169 -128.8227
1700.000000 118.404 -128.9283
1725.000000 118.639 -129.0882
1750.000000 118.910 -129.3328
1775.000000 119.148 -129.6870
1800.000000 119.423 -130.1091
1825.000000 119.682 -130.4464
1850.000000 119.962 -131.1113
1875.000000 120.204 -131.8720
1900.000000 120.474 -132.5976
1925.000000 120.714 -133.4668
1950.000000 120.990 -134.4403
1975.000000 121.226 -135.4555
2000.000000 121.487 -136.4026
2030.000000 121.769 -138.2666
2060.000000 122.027 -140.2128
2090.000000 122.271 -142.1246
2120.000000 122.500 -144.1639
2140.000000 122.635 -145.6737
2180.000000 122.869 -148.8394
2200.000000 122.964 -150.3886
2240.000000 123.110 -153.6611
2270.000000 123.149 -156.2343
2300.000000 123.209 -158.7144
2330.000000 123.193 -161.2319
2360.000000 123.139 -163.6821
2400.000000 123.035 -166.6989
2430.000000 122.915 -168.8147
2470.000000 122.756 -171.2772
2500.000000 122.605 -172.9792
2540.000000 122.417 -175.0385
2580.000000 122.226 -176.7745
2620.000000 122.014 -178.4358
2650.000000 121.856 -179.5675
2690.000000 121.614 178.9634
2720.000000 121.455 178.1560
2760.000000 121.237 177.0278
2800.000000 121.001 176.2128
2850.000000 120.751 175.3536
2900.000000 120.499 174.6823
2950.000000 120.274 174.3073
3000.000000 120.066 173.5963
3040.000000 119.905 173.5947
3070.000000 119.798 173.4747
3110.000000 119.686 173.2194
3150.000000 119.568 173.0387
3200.000000 119.423 172.7857
3250.000000 119.330 172.4014
3300.000000 119.182 171.8161
3350.000000 119.008 171.0277
3400.000000 118.856 170.2118
3450.000000 118.575 169.5842
3500.000000 118.281 169.3402
3550.000000 117.982 169.6450
3600.000000 117.707 170.5484
3650.000000 117.490 171.8479
3700.000000 117.392 172.9024
3750.000000 117.336 174.0815
3820.000000 117.268 175.0092
3870.000000 117.186 175.9152
3950.000000 117.093 177.5211
4000.000000 117.049 178.6201
4060.000000 117.127 179.6373
4120.000000 117.233 -179.2622
4180.000000 117.369 -178.3074
4250.000000 117.621 -178.0887
4310.000000 117.738 -177.9479
4370.000000 117.879 -178.0429
4440.000000 118.046 -178.7508
4500.000000 118.194 -179.2603
4550.000000 118.252 -179.9423
4620.000000 118.358 178.6571
4680.000000 118.405 177.4258
4750.000000 118.439 176.0770
4820.000000 118.396 174.6133
4870.000000 118.342 173.5314
4940.000000 118.257 171.9249
5000.000000 118.202 170.3188
5080.000000 117.976 169.0117
5150.000000 117.776 167.4319
5220.000000 117.551 166.4813
5300.000000 117.206 165.1380
5380.000000 116.840 164.4358
5450.000000 116.455 163.6233
5520.000000 116.046 163.5151
5600.000000 115.562 164.1645
5700.000000 114.985 165.5060
5800.000000 114.478 167.6560
5900.000000 114.045 170.2029
6000.000000 113.741 174.0988
6080.000000 113.570 176.1403
6150.000000 113.472 178.4387
6220.000000 113.396 -179.6066
6300.000000 113.309 -177.5164
6400.000000 113.209 -174.9985
6500.000000 113.014 -172.8076
6600.000000 112.937 -169.4369
6700.000000 112.830 -165.3440
6800.000000 112.854 -161.7684
6900.000000 113.039 -157.1996
7000.000000 113.253 -153.2826
7100.000000 113.722 -150.7765
7200.000000 114.178 -148.5194
7300.000000 114.558 -146.1794
7400.000000 114.947 -144.1857
7500.000000 115.396 -141.8993
7620.000000 116.106 -139.8301
7750.000000 116.926 -138.2182
7880.000000 118.025 -136.9164
8000.000000 119.092 -137.5832
8120.000000 120.498 -140.1334
8250.000000 122.046 -147.2460
8380.000000 123.230 -160.4346
8500.000000 123.411 -175.9192
8620.000000 122.576 170.2312
8750.000000 120.999 160.3234
8850.000000 119.668 156.1123
9000.000000 117.914 153.8371
9120.000000 116.718 154.3846
9250.000000 115.557 156.7472
9380.000000 114.684 159.0228
9500.000000 113.992 162.1378
9620.000000 113.297 165.2861
9750.000000 112.764 169.6854
9880.000000 112.431 174.5054
10000.000000 112.314 179.8930
10150.000000 112.289 -173.3958
10300.000000 112.720 -166.0247
10440.000000 113.429 -161.5963
10600.000000 114.635 -157.5889
10750.000000 116.261 -156.1917
10900.000000 117.940 -162.2887
11060.000000 118.979 -172.3166
11200.000000 119.477 175.9934
11380.000000 119.032 159.4741
11500.000000 117.979 150.9061
11720.000000 115.621 142.5711
11800.000000 114.742 141.2649
12060.000000 112.484 142.2354
12200.000000 111.149 142.7234
12410.000000 109.447 145.6105
12500.000000 108.860 148.8263
12650.000000 107.612 153.8481
12800.000000 106.894 161.5799
13150.000000 105.706 -178.1403
13200.000000 105.807 -177.5513
13400.000000 106.082 -166.3273
13600.000000 106.813 -158.9241
13800.000000 107.346 -154.8450
14000.000000 107.772 -150.0845
14300.000000 108.813 -145.5410
14500.000000 109.818 -142.2793
14750.000000 111.312 -142.6194
15000.000000 112.848 -145.0356
15250.000000 114.589 -155.8377
15500.000000 115.138 -175.2396
15750.000000 113.814 167.5062
16000.000000 111.786 157.9269
16250.000000 109.857 158.2359
16500.000000 108.636 159.2694
16750.000000 107.755 161.3770
17000.000000 107.116 162.7740
17250.000000 106.565 163.8411
17500.000000 106.105 162.8420
17750.000000 105.743 163.1843
18000.000000 105.025 162.3369
18250.000000 104.084 161.7622
18500.000000 103.378 159.8582
18750.000000 102.523 158.1171
19000.000000 101.869 154.8562
19250.000000 99.580 153.7327
19500.000000 98.365 153.0134
19750.000000 96.721 154.6722
