* Measurement data measured by REW V5.31.1
* Source: Microphone (USB Sound Device        ), MICROPHONE (Master Volume), L, volume: 0.250
* Format: 256k Log Swept Sine, 1 sweep at -20.0 dBFS with no timing reference
* Dated: Oct 3, 2024 6:01:47 PM
* REW Settings:
*  C-weighting compensation: Off
*  Target level: 75.0 dB
* Note: 
* Measurement: R Origin foam 242
* Smoothing: None
* Frequency Step: 1/48 octave
* Start Frequency: 20.300 Hz
*
* Freq(Hz) SPL(dB) Phase(degrees)
20.299999 85.552 15.2008
20.600000 85.556 14.5661
20.900000 85.555 13.9911
21.200001 85.556 13.4061
21.400000 85.557 13.0066
21.799999 85.561 12.1920
22.000000 85.563 11.7840
22.400000 85.566 10.9879
22.700001 85.568 10.4224
23.000000 85.569 9.8891
23.299999 85.569 9.3811
23.600000 85.570 8.8876
24.000000 85.570 8.2343
24.299999 85.569 7.7388
24.700001 85.565 7.0696
25.000000 85.561 6.5664
25.400000 85.554 5.9034
25.799999 85.546 5.2583
26.200001 85.538 4.6369
26.500000 85.532 4.1880
26.900000 85.522 3.6122
27.200001 85.514 3.1943
27.600000 85.503 2.6480
28.000000 85.493 2.1029
28.500000 85.478 1.4131
29.000000 85.461 0.7255
29.500000 85.443 0.0651
30.000000 85.426 -0.5590
30.400000 85.415 -1.0474
30.700001 85.407 -1.4187
31.100000 85.396 -1.9266
31.500000 85.382 -2.4412
32.000000 85.358 -3.0648
32.500000 85.331 -3.6434
33.000000 85.308 -4.1887
33.500000 85.287 -4.7318
34.000000 85.267 -5.2885
34.500000 85.246 -5.8504
35.000000 85.225 -6.4090
35.500000 85.202 -6.9626
36.000000 85.177 -7.5006
36.500000 85.147 -7.9995
37.000000 85.118 -8.4540
37.500000 85.093 -8.8984
38.200001 85.061 -9.5816
38.700001 85.033 -10.1050
39.500000 84.983 -10.8841
40.000000 84.955 -11.3168
40.599998 84.925 -11.8154
41.200001 84.896 -12.3189
41.799999 84.865 -12.8389
42.500000 84.824 -13.4613
43.099998 84.783 -13.9647
43.700001 84.745 -14.4186
44.400002 84.708 -14.9533
45.000000 84.676 -15.4608
45.500000 84.645 -15.8863
46.200001 84.601 -16.4357
46.799999 84.562 -16.8661
47.500000 84.511 -17.3213
48.200001 84.462 -17.7576
48.700001 84.432 -18.1242
49.400002 84.391 -18.7318
50.000000 84.356 -19.2379
50.799999 84.320 -19.8413
51.500000 84.279 -20.3578
52.200001 84.214 -20.7476
53.000000 84.153 -21.0318
53.799999 84.115 -21.4906
54.500000 84.066 -21.9961
55.200001 84.011 -22.3927
56.000000 83.961 -22.8412
57.000000 83.886 -23.4888
58.000000 83.815 -23.9969
59.000000 83.755 -24.5285
60.000000 83.682 -25.0471
60.799999 83.624 -25.4334
61.500000 83.578 -25.7751
62.200001 83.532 -26.1447
63.000000 83.470 -26.5796
64.000000 83.392 -27.0380
65.000000 83.329 -27.5017
66.000000 83.258 -27.9493
67.000000 83.188 -28.3271
68.000000 83.118 -28.7408
69.000000 83.044 -29.1796
70.000000 82.967 -29.6215
71.000000 82.897 -30.0378
72.000000 82.831 -30.4434
73.000000 82.750 -30.7618
74.000000 82.677 -31.0256
75.000000 82.614 -31.4800
76.199997 82.516 -31.9486
77.500000 82.434 -32.3341
78.800003 82.319 -32.7985
80.000000 82.246 -33.0594
81.199997 82.164 -33.5109
82.500000 82.066 -33.7708
83.800003 81.941 -33.9708
85.000000 81.865 -34.3210
86.199997 81.777 -34.9105
87.500000 81.695 -35.0675
88.500000 81.607 -35.2701
90.000000 81.502 -35.6236
91.199997 81.397 -35.7658
92.500000 81.350 -35.9426
93.800003 81.250 -36.5292
95.000000 81.165 -36.6858
96.199997 81.056 -36.7674
97.500000 81.001 -36.9362
98.800003 80.880 -37.5934
100.000000 80.733 -37.2482
101.500000 80.730 -37.4323
103.000000 80.567 -37.9500
104.400002 80.474 -37.7844
106.000000 80.375 -38.2459
107.500000 80.283 -38.2502
109.000000 80.169 -38.3187
110.599998 80.078 -38.4780
112.000000 79.997 -38.6740
113.800003 79.839 -38.6227
115.000000 79.785 -38.8222
117.199997 79.655 -38.8384
118.000000 79.570 -38.9072
120.599998 79.426 -38.8663
122.000000 79.339 -38.8055
124.099998 79.194 -38.9956
125.000000 79.139 -38.9504
126.500000 79.038 -38.7782
128.000000 78.952 -38.7904
131.500000 78.735 -38.7483
132.000000 78.704 -38.7428
134.000000 78.590 -38.6120
136.000000 78.472 -38.5672
138.000000 78.378 -38.4912
140.000000 78.255 -38.2759
143.000000 78.108 -38.1237
145.000000 77.979 -37.7860
147.500000 77.859 -37.6009
150.000000 77.726 -37.3970
152.500000 77.621 -37.0839
155.000000 77.492 -36.6479
157.500000 77.372 -36.5860
160.000000 77.263 -36.2470
162.500000 77.156 -35.8468
165.000000 77.068 -35.3893
167.500000 76.963 -35.2897
170.000000 76.861 -34.8082
172.500000 76.746 -34.4292
175.000000 76.678 -34.1831
177.500000 76.579 -33.7623
180.000000 76.527 -33.3738
182.500000 76.436 -32.6464
185.000000 76.373 -32.6570
187.500000 76.216 -31.4775
190.000000 76.243 -32.7297
192.500000 76.132 -30.1269
195.000000 76.060 -31.2262
197.500000 75.945 -30.4977
200.000000 75.926 -30.5041
203.000000 75.871 -28.6977
206.000000 75.826 -29.9475
209.000000 75.704 -28.6602
212.000000 75.689 -28.2288
214.000000 75.612 -27.8815
218.000000 75.567 -27.0579
220.000000 75.550 -27.1975
224.000000 75.475 -26.6673
227.000000 75.440 -26.4187
230.000000 75.396 -26.1172
233.000000 75.345 -26.1716
236.000000 75.286 -26.2256
240.000000 75.074 -27.1435
243.000000 74.628 -27.9332
247.000000 73.969 -21.5110
250.000000 74.499 -18.2157
254.000000 74.827 -18.1408
258.000000 74.936 -18.3133
262.000000 74.962 -18.1671
265.000000 74.973 -18.0239
269.000000 74.978 -17.5470
272.000000 74.978 -17.2028
276.000000 74.960 -17.2343
280.000000 74.969 -16.9917
285.000000 75.013 -16.2825
290.000000 75.012 -16.0330
295.000000 75.051 -15.0735
300.000000 74.968 -14.7952
304.000000 74.960 -14.3958
307.000000 75.011 -14.2749
311.000000 74.996 -13.7062
315.000000 75.076 -13.3501
320.000000 75.031 -14.5287
325.000000 74.909 -13.4979
330.000000 74.932 -13.1419
335.000000 74.931 -12.6699
340.000000 74.921 -12.3500
345.000000 74.926 -11.8156
350.000000 74.906 -11.5254
355.000000 74.924 -11.2768
360.000000 74.924 -11.0049
365.000000 74.914 -10.5131
370.000000 74.920 -10.6188
375.000000 74.944 -10.2108
382.000000 74.909 -9.8966
387.000000 74.955 -9.6231
395.000000 74.943 -9.2008
400.000000 74.908 -8.8428
406.000000 74.945 -8.5668
412.000000 74.918 -8.4480
418.000000 74.932 -7.9941
425.000000 74.959 -7.9110
431.000000 74.946 -7.9081
437.000000 74.959 -7.2551
444.000000 74.956 -7.2497
450.000000 74.976 -6.9289
455.000000 74.955 -6.8264
462.000000 74.943 -6.5040
468.000000 74.951 -6.4729
475.000000 74.916 -6.4149
482.000000 74.918 -6.0678
487.000000 74.875 -5.9799
494.000000 74.956 -5.9379
500.000000 74.946 -5.3351
508.000000 74.909 -5.4027
515.000000 74.893 -5.3479
522.000000 74.930 -4.9242
530.000000 74.898 -4.5008
538.000000 74.890 -4.5595
545.000000 74.886 -4.1108
552.000000 74.887 -4.0154
560.000000 74.845 -3.8873
570.000000 74.853 -3.5657
580.000000 74.829 -3.2429
590.000000 74.813 -3.2061
600.000000 74.781 -2.9295
608.000000 74.760 -2.7545
615.000000 74.755 -2.6416
622.000000 74.790 -2.2947
630.000000 74.729 -1.8463
640.000000 74.749 -1.5506
650.000000 74.717 -1.2972
660.000000 74.697 -0.9407
670.000000 74.659 -0.8131
680.000000 74.631 -0.3576
690.000000 74.645 -0.2626
700.000000 74.641 0.3709
710.000000 74.660 0.7143
720.000000 74.596 0.8923
730.000000 74.603 1.4092
740.000000 74.649 1.6943
750.000000 74.621 2.2521
762.000000 74.538 2.5716
775.000000 74.587 3.2847
788.000000 74.576 3.6663
800.000000 74.590 4.2002
812.000000 74.581 4.6612
825.000000 74.576 5.1438
838.000000 74.567 5.8019
850.000000 74.622 6.1212
862.000000 74.650 6.5703
875.000000 74.653 7.1204
885.000000 74.693 7.4848
900.000000 74.717 8.0173
912.000000 74.754 8.4864
925.000000 74.782 9.0826
938.000000 74.844 9.5148
950.000000 74.894 10.0736
962.000000 74.919 10.4880
975.000000 74.973 10.7374
988.000000 74.993 11.2464
1000.000000 75.007 10.9882
1015.000000 75.094 12.0138
1030.000000 75.141 12.4671
1044.000000 75.278 12.5245
1060.000000 75.298 13.1357
1075.000000 75.382 13.0773
1090.000000 75.435 13.5275
1106.000000 75.486 13.5126
1120.000000 75.563 13.6758
1138.000000 75.639 14.0889
1150.000000 75.664 14.1756
1172.000000 75.758 14.2037
1180.000000 75.798 14.4631
1206.000000 75.864 14.5822
1220.000000 75.918 14.7190
1241.000000 75.965 14.8940
1250.000000 76.006 14.8058
1265.000000 76.016 14.8182
1280.000000 76.054 14.8628
1315.000000 76.167 15.2075
1320.000000 76.188 15.2894
1340.000000 76.211 15.2808
1360.000000 76.241 15.5587
1380.000000 76.273 15.5996
1400.000000 76.304 15.7139
1430.000000 76.351 16.0118
1450.000000 76.415 16.2825
1475.000000 76.433 16.6993
1500.000000 76.492 16.8500
1525.000000 76.573 16.9723
1550.000000 76.573 17.7141
1575.000000 76.645 17.8185
1600.000000 76.694 18.1433
1625.000000 76.761 18.7706
1650.000000 76.845 18.8523
1675.000000 76.924 19.3056
1700.000000 76.995 19.7870
1725.000000 77.050 20.0808
1750.000000 77.142 20.4853
1775.000000 77.266 20.7154
1800.000000 77.345 21.2133
1825.000000 77.427 21.4588
1850.000000 77.518 21.8807
1875.000000 77.639 22.1975
1900.000000 77.730 22.2917
1925.000000 77.865 22.8151
1950.000000 77.991 22.9147
1975.000000 78.106 23.1466
2000.000000 78.172 23.2866
2030.000000 78.402 23.5811
2060.000000 78.565 23.7792
2090.000000 78.757 23.7488
2120.000000 78.910 23.7899
2140.000000 79.048 23.9531
2180.000000 79.298 23.7797
2200.000000 79.434 23.6478
2240.000000 79.688 23.4655
2270.000000 79.870 22.9290
2300.000000 80.112 22.6217
2330.000000 80.287 22.1550
2360.000000 80.499 21.5165
2400.000000 80.741 20.6560
2430.000000 80.945 19.7633
2470.000000 81.211 18.5410
2500.000000 81.345 17.5335
2540.000000 81.580 15.8295
2580.000000 81.800 14.1958
2620.000000 81.949 12.2824
2650.000000 82.040 10.7716
2690.000000 82.157 8.7343
2720.000000 82.210 7.2932
2760.000000 82.274 5.1481
2800.000000 82.270 3.1924
2850.000000 82.240 0.8654
2900.000000 82.181 -1.4091
2950.000000 82.069 -3.2777
3000.000000 81.952 -4.9714
3040.000000 81.848 -6.4292
3070.000000 81.761 -7.1790
3110.000000 81.659 -8.3495
3150.000000 81.523 -9.3419
3200.000000 81.391 -10.4649
3250.000000 81.240 -11.2572
3300.000000 81.083 -12.2121
3350.000000 80.937 -12.8747
3400.000000 80.803 -13.5543
3450.000000 80.684 -14.1549
3500.000000 80.552 -14.6546
3550.000000 80.395 -15.1504
3600.000000 80.287 -15.6356
3650.000000 80.156 -16.0690
3700.000000 80.006 -16.7089
3750.000000 79.872 -17.1929
3820.000000 79.632 -17.8108
3870.000000 79.448 -18.2371
3950.000000 79.106 -18.3751
4000.000000 78.930 -18.2667
4060.000000 78.556 -17.5587
4120.000000 78.246 -16.7210
4180.000000 77.988 -15.0975
4250.000000 77.777 -12.5248
4310.000000 77.701 -9.5935
4370.000000 77.781 -7.2228
4440.000000 78.002 -4.1665
4500.000000 78.390 -3.3925
4550.000000 78.676 -2.3859
4620.000000 79.038 -2.6675
4680.000000 79.340 -3.7369
4750.000000 79.539 -5.2614
4820.000000 79.674 -7.2033
4870.000000 79.705 -8.8304
4940.000000 79.622 -11.0098
5000.000000 79.529 -12.4639
5080.000000 79.167 -14.3891
5150.000000 78.823 -15.1602
5220.000000 78.421 -15.3840
5300.000000 77.974 -14.5999
5380.000000 77.594 -12.4524
5450.000000 77.327 -10.4593
5520.000000 77.228 -7.9831
5600.000000 77.238 -5.6420
5700.000000 77.342 -2.6760
5800.000000 77.493 -0.4784
5900.000000 77.786 1.0382
6000.000000 78.059 2.0401
6080.000000 78.229 2.0527
6150.000000 78.403 1.6119
6220.000000 78.526 1.1008
6300.000000 78.613 0.5220
6400.000000 78.692 -0.4135
6500.000000 78.732 -1.6163
6600.000000 78.586 -2.7677
6700.000000 78.439 -3.5019
6800.000000 78.214 -4.1840
6900.000000 78.013 -4.6332
7000.000000 77.862 -4.7936
7100.000000 77.536 -3.5416
7200.000000 77.279 -2.4721
7300.000000 77.131 -1.5235
7400.000000 77.048 -0.5207
7500.000000 76.983 0.7025
7620.000000 76.909 2.3272
7750.000000 76.986 3.5609
7880.000000 77.065 4.5037
8000.000000 77.256 3.4052
8120.000000 77.434 4.6899
8250.000000 77.566 3.8246
8380.000000 77.644 1.7218
8500.000000 77.699 0.0514
8620.000000 77.612 -2.3455
8750.000000 77.352 -4.6489
8850.000000 77.140 -5.7816
9000.000000 76.623 -7.0394
9120.000000 76.303 -8.2461
9250.000000 75.895 -7.8743
9380.000000 75.520 -7.7545
9500.000000 75.225 -5.9961
9620.000000 74.928 -4.3498
9750.000000 74.768 -3.1078
9880.000000 74.723 -0.5608
10000.000000 74.789 0.6137
10150.000000 74.864 2.4679
10300.000000 75.037 3.8488
10440.000000 75.438 4.4673
10600.000000 75.773 4.6163
10750.000000 76.100 4.0342
10900.000000 76.410 2.7644
11060.000000 76.694 0.9646
11200.000000 76.883 -0.5903
11380.000000 77.070 -2.1647
11500.000000 77.170 -3.9663
11720.000000 77.239 -5.9369
11800.000000 77.296 -6.8519
12060.000000 77.328 -9.1952
12200.000000 77.281 -10.3645
12410.000000 77.261 -11.3958
12500.000000 77.273 -11.9683
12650.000000 77.349 -13.3576
12800.000000 77.358 -14.7869
13150.000000 77.386 -17.8751
13200.000000 77.289 -18.4910
13400.000000 77.371 -22.0334
13600.000000 77.243 -25.8476
13800.000000 76.875 -31.0097
14000.000000 76.188 -37.0420
14300.000000 74.292 -44.0172
14500.000000 72.666 -46.0467
14750.000000 70.557 -44.0372
15000.000000 68.691 -37.0614
15250.000000 67.179 -29.1108
15500.000000 65.945 -16.6164
15750.000000 64.663 -7.6034
16000.000000 64.070 9.1959
16250.000000 64.160 19.8244
16500.000000 64.791 31.3069
16750.000000 65.432 41.4889
17000.000000 66.117 45.6468
17250.000000 65.981 50.8062
17500.000000 66.726 55.9347
17750.000000 67.259 60.7826
18000.000000 67.449 60.4136
18250.000000 67.552 62.2313
18500.000000 67.209 62.5850
18750.000000 66.379 60.9748
19000.000000 65.620 65.9232
19250.000000 64.144 70.0176
19500.000000 63.503 81.5100
19750.000000 62.699 85.2310
