* Measurement data measured by REW V5.31.1
* Source: EXCL: Microphone (USB Sound Device        ), MICROPHONE (Master Volume), R, volume: 0.250
* Format: 256k Log Swept Sine, 1 sweep at -20.0 dBFS with no timing reference
* Dated: Sep 14, 2024 11:16:12 AM
* REW Settings:
*  C-weighting compensation: Off
*  Target level: 75.0 dB
* Note: 
* Measurement: R TEA PRO 209
* Smoothing: None
* Frequency Step: 1/48 octave
* Start Frequency: 20.300 Hz
*
* Freq(Hz) SPL(dB) Phase(degrees)
20.299999 89.682 26.2607
20.600000 89.705 25.5623
20.900000 89.721 24.9393
21.200001 89.739 24.3220
21.400000 89.751 23.9092
21.799999 89.777 23.0797
22.000000 89.791 22.6650
22.400000 89.817 21.8454
22.700001 89.835 21.2488
23.000000 89.850 20.6744
23.299999 89.864 20.1221
23.600000 89.876 19.5881
24.000000 89.892 18.8938
24.299999 89.903 18.3771
24.700001 89.918 17.6854
25.000000 89.928 17.1642
25.400000 89.940 16.4724
25.799999 89.949 15.7983
26.200001 89.956 15.1543
26.500000 89.961 14.6930
26.900000 89.967 14.1001
27.200001 89.972 13.6636
27.600000 89.977 13.0811
28.000000 89.981 12.4935
28.500000 89.983 11.7608
29.000000 89.982 11.0498
29.500000 89.981 10.3668
30.000000 89.983 9.6991
30.400000 89.983 9.1675
30.700001 89.983 8.7708
31.100000 89.980 8.2513
31.500000 89.975 7.7499
32.000000 89.968 7.1509
32.500000 89.962 6.5711
33.000000 89.958 5.9921
33.500000 89.952 5.4079
34.000000 89.943 4.8285
34.500000 89.932 4.2697
35.000000 89.921 3.7373
35.500000 89.912 3.2212
36.000000 89.905 2.7042
36.500000 89.895 2.1800
37.000000 89.882 1.6614
37.500000 89.865 1.1671
38.200001 89.843 0.5167
38.700001 89.831 0.0552
39.500000 89.811 -0.7101
40.000000 89.795 -1.1793
40.599998 89.773 -1.7053
41.200001 89.753 -2.2078
41.799999 89.733 -2.7219
42.500000 89.706 -3.3356
43.099998 89.679 -3.8363
43.700001 89.655 -4.3022
44.400002 89.633 -4.8348
45.000000 89.614 -5.3047
45.500000 89.596 -5.6969
46.200001 89.565 -6.2218
46.799999 89.538 -6.6485
47.500000 89.507 -7.1406
48.200001 89.475 -7.6238
48.700001 89.452 -7.9510
49.400002 89.422 -8.3882
50.000000 89.399 -8.7702
50.799999 89.368 -9.3081
51.500000 89.338 -9.7816
52.200001 89.306 -10.2384
53.000000 89.269 -10.7396
53.799999 89.229 -11.2102
54.500000 89.193 -11.5918
55.200001 89.159 -11.9680
56.000000 89.122 -12.4180
57.000000 89.072 -12.9746
58.000000 89.023 -13.5176
59.000000 88.969 -14.0552
60.000000 88.919 -14.5267
60.799999 88.883 -14.9329
61.500000 88.843 -15.2963
62.200001 88.802 -15.5991
63.000000 88.764 -15.9225
64.000000 88.715 -16.4063
65.000000 88.653 -16.8456
66.000000 88.601 -17.2482
67.000000 88.550 -17.6843
68.000000 88.498 -18.0870
69.000000 88.443 -18.4792
70.000000 88.386 -18.8359
71.000000 88.337 -19.2238
72.000000 88.278 -19.6095
73.000000 88.223 -19.9102
74.000000 88.172 -20.2512
75.000000 88.115 -20.5761
76.199997 88.049 -20.9711
77.500000 87.972 -21.3838
78.800003 87.902 -21.7681
80.000000 87.836 -22.0718
81.199997 87.764 -22.4275
82.500000 87.690 -22.7440
83.800003 87.625 -23.1182
85.000000 87.553 -23.3678
86.199997 87.490 -23.6457
87.500000 87.411 -23.9502
88.500000 87.358 -24.1687
90.000000 87.275 -24.4643
91.199997 87.212 -24.6577
92.500000 87.143 -24.9091
93.800003 87.064 -25.1446
95.000000 87.003 -25.3376
96.199997 86.933 -25.5737
97.500000 86.864 -25.7612
98.800003 86.790 -25.9374
100.000000 86.723 -26.0640
101.500000 86.644 -26.2520
103.000000 86.560 -26.4377
104.400002 86.483 -26.5729
106.000000 86.402 -26.7381
107.500000 86.321 -26.8522
109.000000 86.244 -27.0086
110.599998 86.161 -27.0806
112.000000 86.092 -27.1777
113.800003 85.996 -27.2558
115.000000 85.940 -27.3208
117.199997 85.821 -27.3969
118.000000 85.781 -27.4488
120.599998 85.664 -27.5457
122.000000 85.594 -27.5313
124.099998 85.497 -27.5471
125.000000 85.458 -27.5475
126.500000 85.381 -27.5394
128.000000 85.308 -27.5520
131.500000 85.158 -27.4893
132.000000 85.133 -27.5092
134.000000 85.051 -27.3610
136.000000 84.960 -27.3794
138.000000 84.879 -27.2063
140.000000 84.796 -27.1281
143.000000 84.679 -26.9287
145.000000 84.598 -26.8367
147.500000 84.502 -26.6266
150.000000 84.413 -26.4708
152.500000 84.321 -26.2621
155.000000 84.241 -26.1101
157.500000 84.161 -25.8590
160.000000 84.088 -25.6472
162.500000 84.004 -25.3348
165.000000 83.923 -25.1288
167.500000 83.849 -24.7937
170.000000 83.776 -24.5689
172.500000 83.714 -24.3110
175.000000 83.645 -24.0202
177.500000 83.591 -23.7270
180.000000 83.521 -23.4374
182.500000 83.471 -23.1433
185.000000 83.416 -22.8473
187.500000 83.369 -22.5802
190.000000 83.310 -22.2351
192.500000 83.270 -22.0059
195.000000 83.229 -21.7024
197.500000 83.186 -21.4319
200.000000 83.147 -21.1250
203.000000 83.075 -20.7371
206.000000 83.052 -20.4659
209.000000 83.002 -20.0506
212.000000 82.962 -19.6749
214.000000 82.931 -19.4057
218.000000 82.874 -19.3068
220.000000 82.873 -19.0012
224.000000 82.814 -18.2055
227.000000 82.764 -17.8941
230.000000 82.742 -17.6088
233.000000 82.728 -17.6781
236.000000 82.712 -17.2727
240.000000 82.718 -16.8823
243.000000 82.649 -16.5876
247.000000 82.637 -16.2232
250.000000 82.638 -15.9772
254.000000 82.588 -15.4739
258.000000 82.578 -15.3150
262.000000 82.560 -14.9486
265.000000 82.526 -14.6687
269.000000 82.551 -14.2815
272.000000 82.507 -14.3867
276.000000 82.481 -13.7752
280.000000 82.492 -13.5083
285.000000 82.461 -13.4287
290.000000 82.432 -13.0131
295.000000 82.467 -12.6530
300.000000 82.424 -12.3227
304.000000 82.428 -12.0640
307.000000 82.399 -11.7733
311.000000 82.393 -11.7958
315.000000 82.397 -11.6601
320.000000 82.368 -11.3767
325.000000 82.356 -11.1064
330.000000 82.358 -10.8870
335.000000 82.341 -10.5065
340.000000 82.310 -10.5189
345.000000 82.315 -10.2759
350.000000 82.313 -9.9949
355.000000 82.292 -9.7979
360.000000 82.275 -9.5754
365.000000 82.266 -9.4605
370.000000 82.258 -9.3191
375.000000 82.231 -9.1177
382.000000 82.213 -8.9875
387.000000 82.210 -8.6997
395.000000 82.174 -8.4200
400.000000 82.176 -8.3472
406.000000 82.160 -8.1138
412.000000 82.143 -7.8813
418.000000 82.120 -7.7468
425.000000 82.109 -7.5120
431.000000 82.101 -7.4202
437.000000 82.080 -7.3287
444.000000 82.056 -6.9817
450.000000 82.026 -6.8127
455.000000 82.022 -6.6695
462.000000 81.999 -6.5512
468.000000 81.976 -6.3555
475.000000 81.944 -6.1797
482.000000 81.919 -6.0359
487.000000 81.904 -5.8636
494.000000 81.884 -5.5983
500.000000 81.862 -5.3867
508.000000 81.826 -5.2141
515.000000 81.808 -5.0971
522.000000 81.807 -4.8444
530.000000 81.757 -4.5185
538.000000 81.734 -4.2368
545.000000 81.704 -4.0372
552.000000 81.674 -3.8816
560.000000 81.654 -3.5926
570.000000 81.616 -3.2205
580.000000 81.583 -2.9177
590.000000 81.545 -2.4938
600.000000 81.492 -2.2434
608.000000 81.474 -1.8054
615.000000 81.444 -1.5047
622.000000 81.427 -1.3504
630.000000 81.413 -0.9550
640.000000 81.363 -0.6078
650.000000 81.331 -0.2035
660.000000 81.304 0.1822
670.000000 81.270 0.5481
680.000000 81.249 1.0994
690.000000 81.200 1.4143
700.000000 81.175 1.8513
710.000000 81.156 2.3420
720.000000 81.128 2.7897
730.000000 81.119 3.3397
740.000000 81.075 3.8167
750.000000 81.048 4.3415
762.000000 81.036 5.0180
775.000000 81.037 5.5775
788.000000 80.992 6.4050
800.000000 81.004 6.9479
812.000000 80.989 7.5928
825.000000 80.989 8.2262
838.000000 80.992 9.0457
850.000000 80.989 9.6260
862.000000 80.980 10.2990
875.000000 81.001 11.1261
885.000000 81.014 11.4941
900.000000 81.015 12.3513
912.000000 81.043 12.9756
925.000000 81.054 13.7331
938.000000 81.062 14.4011
950.000000 81.085 15.0002
962.000000 81.104 15.7945
975.000000 81.134 16.5867
988.000000 81.173 17.4642
1000.000000 81.255 18.1416
1015.000000 81.317 19.0570
1030.000000 81.404 19.8638
1044.000000 81.516 20.4590
1060.000000 81.598 20.9532
1075.000000 81.704 21.5919
1090.000000 81.796 21.8993
1106.000000 81.878 22.4076
1120.000000 81.945 22.8048
1138.000000 82.041 23.3031
1150.000000 82.106 23.5727
1172.000000 82.217 23.9318
1180.000000 82.268 24.1650
1206.000000 82.373 24.5495
1220.000000 82.445 24.8462
1241.000000 82.542 25.2762
1250.000000 82.564 25.4795
1265.000000 82.636 25.7444
1280.000000 82.705 25.9907
1315.000000 82.824 26.6344
1320.000000 82.855 26.7866
1340.000000 82.931 27.0639
1360.000000 83.019 27.3366
1380.000000 83.090 27.8817
1400.000000 83.168 28.2310
1430.000000 83.314 28.7104
1450.000000 83.392 29.2151
1475.000000 83.515 29.6987
1500.000000 83.611 30.1010
1525.000000 83.735 30.6174
1550.000000 83.858 31.1297
1575.000000 83.995 31.4993
1600.000000 84.138 31.8655
1625.000000 84.269 32.1835
1650.000000 84.423 32.4623
1675.000000 84.578 32.7437
1700.000000 84.731 33.0766
1725.000000 84.884 33.2514
1750.000000 85.053 33.3396
1775.000000 85.214 33.4460
1800.000000 85.393 33.4266
1825.000000 85.550 33.3995
1850.000000 85.729 33.3496
1875.000000 85.894 33.1859
1900.000000 86.067 32.9577
1925.000000 86.233 32.6263
1950.000000 86.399 32.3038
1975.000000 86.559 31.9721
2000.000000 86.717 31.5087
2030.000000 86.903 30.8547
2060.000000 87.087 30.1318
2090.000000 87.235 29.2893
2120.000000 87.408 28.5577
2140.000000 87.512 27.9133
2180.000000 87.689 26.6173
2200.000000 87.767 25.9404
2240.000000 87.935 24.5012
2270.000000 88.031 23.3518
2300.000000 88.137 22.2513
2330.000000 88.214 21.0423
2360.000000 88.270 19.8944
2400.000000 88.339 18.2898
2430.000000 88.367 17.1010
2470.000000 88.406 15.5817
2500.000000 88.408 14.3629
2540.000000 88.387 12.8768
2580.000000 88.355 11.4346
2620.000000 88.308 10.0829
2650.000000 88.269 9.1193
2690.000000 88.200 7.9472
2720.000000 88.142 7.1222
2760.000000 88.041 6.0766
2800.000000 87.941 5.1057
2850.000000 87.823 4.1826
2900.000000 87.706 3.3072
2950.000000 87.564 2.6150
3000.000000 87.449 2.0428
3040.000000 87.354 1.6781
3070.000000 87.282 1.4808
3110.000000 87.212 1.1990
3150.000000 87.127 1.0025
3200.000000 87.046 0.7511
3250.000000 86.977 0.6392
3300.000000 86.916 0.3919
3350.000000 86.839 0.3713
3400.000000 86.803 0.3552
3450.000000 86.794 0.1857
3500.000000 86.742 0.1334
3550.000000 86.718 0.0011
3600.000000 86.727 -0.0979
3650.000000 86.724 -0.2789
3700.000000 86.708 -0.4566
3750.000000 86.718 -0.7739
3820.000000 86.710 -1.1294
3870.000000 86.723 -1.5192
3950.000000 86.722 -2.0642
4000.000000 86.755 -2.6938
4060.000000 86.721 -3.0307
4120.000000 86.713 -3.5388
4180.000000 86.687 -4.0038
4250.000000 86.675 -4.7028
4310.000000 86.649 -5.1595
4370.000000 86.623 -5.7997
4440.000000 86.601 -6.4503
4500.000000 86.598 -7.0740
4550.000000 86.556 -7.6667
4620.000000 86.507 -8.4499
4680.000000 86.447 -9.3660
4750.000000 86.388 -10.3304
4820.000000 86.283 -11.3368
4870.000000 86.205 -12.0949
4940.000000 86.048 -13.1286
5000.000000 85.937 -14.0418
5080.000000 85.661 -15.0090
5150.000000 85.412 -15.7446
5220.000000 85.115 -16.2914
5300.000000 84.803 -16.5287
5380.000000 84.440 -16.5346
5450.000000 84.118 -15.9537
5520.000000 83.797 -15.3600
5600.000000 83.446 -14.1628
5700.000000 83.052 -12.3680
5800.000000 82.722 -9.8821
5900.000000 82.465 -7.0319
6000.000000 82.269 -3.6192
6080.000000 82.225 -1.4937
6150.000000 82.205 1.0043
6220.000000 82.217 3.3027
6300.000000 82.314 5.7092
6400.000000 82.477 8.6176
6500.000000 82.800 10.8054
6600.000000 83.144 12.7837
6700.000000 83.541 13.9494
6800.000000 83.947 14.1662
6900.000000 84.340 13.2432
7000.000000 84.595 11.6827
7100.000000 84.680 10.0204
7200.000000 84.693 8.1815
7300.000000 84.587 6.9396
7400.000000 84.413 5.7576
7500.000000 84.214 5.4619
7620.000000 83.997 5.6425
7750.000000 83.831 6.6104
7880.000000 83.693 8.1572
8000.000000 83.754 10.0145
8120.000000 83.909 10.6278
8250.000000 84.180 11.3576
8380.000000 84.503 11.1020
8500.000000 84.805 9.9876
8620.000000 85.056 7.9060
8750.000000 85.253 4.4706
8850.000000 85.318 1.6696
9000.000000 85.163 -3.3175
9120.000000 84.861 -6.8112
9250.000000 84.372 -10.2094
9380.000000 83.761 -12.5610
9500.000000 83.154 -13.9057
9620.000000 82.536 -14.1916
9750.000000 81.936 -13.9133
9880.000000 81.377 -13.2629
10000.000000 80.898 -11.8107
10150.000000 80.435 -10.0215
10300.000000 80.020 -7.6417
10440.000000 79.660 -4.8498
10600.000000 79.329 -2.0041
10750.000000 79.174 1.7136
10900.000000 79.127 4.9070
11060.000000 79.240 7.7217
11200.000000 79.362 9.7673
11380.000000 79.555 11.8334
11500.000000 79.610 11.8981
11720.000000 79.890 13.7123
11800.000000 80.040 13.5128
12060.000000 80.186 13.8122
12200.000000 80.242 13.9345
12410.000000 80.409 14.0589
12500.000000 80.424 13.9881
12650.000000 80.507 13.2701
12800.000000 80.636 12.0588
13150.000000 80.561 7.9799
13200.000000 80.505 6.9105
13400.000000 80.190 4.4830
13600.000000 79.679 2.5520
13800.000000 79.175 1.8343
14000.000000 78.716 1.6872
14300.000000 78.314 2.2232
14500.000000 78.180 1.8900
14750.000000 78.130 0.9707
15000.000000 78.166 -1.8950
15250.000000 78.150 -7.8252
15500.000000 77.754 -16.3688
15750.000000 76.588 -25.5013
16000.000000 75.012 -31.3406
16250.000000 73.259 -34.4761
16500.000000 71.258 -33.5903
16750.000000 69.267 -32.1603
17000.000000 67.977 -23.2617
17250.000000 67.134 -14.8107
17500.000000 66.735 -7.2097
17750.000000 66.504 -1.5986
18000.000000 66.380 2.9696
18250.000000 66.685 8.1673
18500.000000 66.443 8.4287
18750.000000 67.010 11.6822
19000.000000 66.887 11.1868
19250.000000 67.036 7.9501
19500.000000 67.086 4.2282
19750.000000 66.672 -5.5738
