* Measurement data measured by REW V5.31.1
* Source: Microphone (USB Sound Device        ), MICROPHONE (Master Volume), L, volume: 0.250
* Format: 256k Log Swept Sine, 1 sweep at -20.0 dBFS with no timing reference
* Dated: Jul 31, 2024 1:18:04 PM
* REW Settings:
*  C-weighting compensation: Off
*  Target level: 75.0 dB
* Note: 
* Measurement: L TSMR MIRAI 111 115
* Smoothing: None
* Frequency Step: 1/48 octave
* Start Frequency: 20.300 Hz
*
* Freq(Hz) SPL(dB) Phase(degrees)
20.299999 91.291 -170.3848
20.600000 91.298 -171.2389
20.900000 91.300 -172.0097
21.200001 91.302 -172.7816
21.400000 91.304 -173.3010
21.799999 91.311 -174.3481
22.000000 91.314 -174.8716
22.400000 91.321 -175.9037
22.700001 91.324 -176.6537
23.000000 91.326 -177.3769
23.299999 91.327 -178.0757
23.600000 91.327 -178.7567
24.000000 91.326 -179.6498
24.299999 91.324 179.6822
24.700001 91.320 178.7881
25.000000 91.316 178.1165
25.400000 91.310 177.2266
25.799999 91.302 176.3539
26.200001 91.295 175.5058
26.500000 91.289 174.8857
26.900000 91.282 174.0755
27.200001 91.276 173.4756
27.600000 91.267 172.6807
28.000000 91.256 171.8898
28.500000 91.241 170.9094
29.000000 91.225 169.9430
29.500000 91.208 168.9943
30.000000 91.190 168.0670
30.400000 91.175 167.3424
30.700001 91.163 166.8085
31.100000 91.146 166.1048
31.500000 91.128 165.4051
32.000000 91.105 164.5317
32.500000 91.080 163.6648
33.000000 91.055 162.8144
33.500000 91.032 161.9831
34.000000 91.011 161.1672
34.500000 90.988 160.3666
35.000000 90.963 159.5851
35.500000 90.936 158.8195
36.000000 90.908 158.0582
36.500000 90.878 157.2941
37.000000 90.848 156.5326
37.500000 90.819 155.7812
38.200001 90.783 154.7405
38.700001 90.757 153.9983
39.500000 90.711 152.8388
40.000000 90.678 152.1500
40.599998 90.639 151.3516
41.200001 90.602 150.5556
41.799999 90.568 149.7457
42.500000 90.527 148.7923
43.099998 90.491 147.9944
43.700001 90.452 147.2285
44.400002 90.406 146.3530
45.000000 90.363 145.5985
45.500000 90.323 144.9814
46.200001 90.271 144.1554
46.799999 90.235 143.4520
47.500000 90.196 142.5947
48.200001 90.148 141.7433
48.700001 90.111 141.1642
49.400002 90.062 140.3613
50.000000 90.019 139.6528
50.799999 89.963 138.7264
51.500000 89.917 137.9659
52.200001 89.871 137.2231
53.000000 89.810 136.3799
53.799999 89.745 135.5398
54.500000 89.693 134.7863
55.200001 89.644 134.0327
56.000000 89.589 133.2178
57.000000 89.516 132.2415
58.000000 89.437 131.2415
59.000000 89.363 130.2581
60.000000 89.300 129.3026
60.799999 89.247 128.5295
61.500000 89.192 127.8391
62.200001 89.131 127.1635
63.000000 89.065 126.4569
64.000000 89.001 125.5934
65.000000 88.930 124.6854
66.000000 88.851 123.8511
67.000000 88.778 122.9926
68.000000 88.701 122.1216
69.000000 88.630 121.2844
70.000000 88.560 120.4366
71.000000 88.482 119.5952
72.000000 88.404 118.7900
73.000000 88.337 117.9985
74.000000 88.263 117.1938
75.000000 88.182 116.4854
76.199997 88.094 115.5248
77.500000 87.986 114.5873
78.800003 87.906 113.6404
80.000000 87.810 112.7163
81.199997 87.732 111.8923
82.500000 87.631 110.9516
83.800003 87.535 110.0790
85.000000 87.449 109.1647
86.199997 87.354 108.4424
87.500000 87.270 107.5822
88.500000 87.187 106.8916
90.000000 87.096 105.9617
91.199997 86.999 105.1771
92.500000 86.914 104.4333
93.800003 86.814 103.5817
95.000000 86.729 102.8551
96.199997 86.625 102.0646
97.500000 86.551 101.4195
98.800003 86.457 100.5771
100.000000 86.373 99.9515
101.500000 86.285 98.9829
103.000000 86.177 98.1653
104.400002 86.076 97.3790
106.000000 85.955 96.5325
107.500000 85.842 95.8604
109.000000 85.746 94.9928
110.599998 85.650 94.2472
112.000000 85.557 93.5137
113.800003 85.442 92.6381
115.000000 85.362 92.1211
117.199997 85.214 91.0210
118.000000 85.163 90.5962
120.599998 84.991 89.3452
122.000000 84.900 88.7732
124.099998 84.750 87.7743
125.000000 84.692 87.3925
126.500000 84.621 86.7535
128.000000 84.513 86.1429
131.500000 84.305 84.6979
132.000000 84.272 84.5209
134.000000 84.161 83.5659
136.000000 84.030 82.9244
138.000000 83.896 81.9667
140.000000 83.789 81.2577
143.000000 83.599 80.1415
145.000000 83.516 79.3854
147.500000 83.347 78.5089
150.000000 83.204 77.6645
152.500000 83.064 76.7870
155.000000 82.937 75.9338
157.500000 82.800 75.1043
160.000000 82.653 74.3893
162.500000 82.514 73.6118
165.000000 82.390 72.7651
167.500000 82.252 72.0841
170.000000 82.118 71.3372
172.500000 81.997 70.5350
175.000000 81.866 69.9084
177.500000 81.749 69.3871
180.000000 81.614 68.7150
182.500000 81.479 67.9321
185.000000 81.369 67.3943
187.500000 81.247 66.7443
190.000000 81.111 65.9610
192.500000 81.009 65.3577
195.000000 80.874 64.8580
197.500000 80.787 64.1355
200.000000 80.647 63.8044
203.000000 80.538 63.2150
206.000000 80.411 62.5617
209.000000 80.259 61.8948
212.000000 80.147 61.3647
214.000000 80.077 61.0160
218.000000 79.882 60.1242
220.000000 79.811 59.8036
224.000000 79.660 59.2177
227.000000 79.528 58.6385
230.000000 79.417 57.9322
233.000000 79.298 57.5784
236.000000 79.161 57.1130
240.000000 79.036 56.3347
243.000000 78.946 55.8330
247.000000 78.788 55.3445
250.000000 78.693 54.9222
254.000000 78.554 54.4727
258.000000 78.390 53.8341
262.000000 78.253 53.2851
265.000000 78.189 52.9556
269.000000 78.058 52.5428
272.000000 77.964 52.2592
276.000000 77.837 51.7331
280.000000 77.735 51.4758
285.000000 77.567 50.9821
290.000000 77.454 50.3534
295.000000 77.287 49.8693
300.000000 77.148 49.5290
304.000000 77.056 49.0631
307.000000 76.968 49.1107
311.000000 76.898 48.5353
315.000000 76.755 48.3378
320.000000 76.646 48.1426
325.000000 76.542 47.6950
330.000000 76.427 47.4922
335.000000 76.301 47.1590
340.000000 76.208 46.9361
345.000000 76.128 46.6760
350.000000 75.996 46.3792
355.000000 75.917 46.0735
360.000000 75.804 46.1035
365.000000 75.684 45.5905
370.000000 75.611 45.3545
375.000000 75.516 45.2111
382.000000 75.460 45.1061
387.000000 75.371 45.0905
395.000000 75.259 44.8245
400.000000 75.160 44.8198
406.000000 75.051 44.5602
412.000000 74.960 44.3074
418.000000 74.915 44.4203
425.000000 74.835 44.3421
431.000000 74.747 44.0108
437.000000 74.687 44.3364
444.000000 74.569 44.0992
450.000000 74.541 44.1198
455.000000 74.572 44.4000
462.000000 74.436 44.3472
468.000000 74.370 44.1571
475.000000 74.308 43.6952
482.000000 74.252 43.8766
487.000000 74.221 44.0526
494.000000 74.198 43.6675
500.000000 74.129 44.0940
508.000000 74.076 43.9951
515.000000 74.032 44.6092
522.000000 73.968 44.2674
530.000000 73.989 44.3071
538.000000 73.883 44.3991
545.000000 73.876 44.3365
552.000000 73.848 44.8233
560.000000 73.778 45.1064
570.000000 73.772 44.8411
580.000000 73.760 45.0339
590.000000 73.709 45.2929
600.000000 73.715 45.3858
608.000000 73.675 45.5875
615.000000 73.689 45.4161
622.000000 73.661 45.8809
630.000000 73.668 46.3921
640.000000 73.684 46.4354
650.000000 73.664 46.5872
660.000000 73.605 46.8030
670.000000 73.628 47.1033
680.000000 73.703 46.7110
690.000000 73.699 47.8273
700.000000 73.658 47.4825
710.000000 73.676 47.8173
720.000000 73.684 48.2501
730.000000 73.750 48.2448
740.000000 73.695 48.3364
750.000000 73.698 48.8340
762.000000 73.764 49.1738
775.000000 73.809 49.5044
788.000000 73.887 49.6641
800.000000 73.979 49.9235
812.000000 73.998 50.4659
825.000000 74.042 50.6627
838.000000 74.058 50.6375
850.000000 74.116 51.2791
862.000000 74.127 51.3903
875.000000 74.296 51.7775
885.000000 74.300 51.6804
900.000000 74.415 52.1932
912.000000 74.484 52.2128
925.000000 74.545 52.6507
938.000000 74.668 52.8629
950.000000 74.749 53.0245
962.000000 74.819 53.0435
975.000000 74.927 53.1289
988.000000 74.966 53.4681
1000.000000 74.988 54.5561
1015.000000 75.192 53.2030
1030.000000 75.274 53.0450
1044.000000 75.421 53.5137
1060.000000 75.555 53.3368
1075.000000 75.629 53.1238
1090.000000 75.751 53.1029
1106.000000 75.829 52.6769
1120.000000 75.932 52.8938
1138.000000 76.028 52.5961
1150.000000 76.114 52.2628
1172.000000 76.213 51.9268
1180.000000 76.256 51.8205
1206.000000 76.470 51.3915
1220.000000 76.461 51.0629
1241.000000 76.572 50.7617
1250.000000 76.604 50.7261
1265.000000 76.741 50.2596
1280.000000 76.718 49.8959
1315.000000 76.880 49.3815
1320.000000 76.888 49.3115
1340.000000 76.954 48.7776
1360.000000 76.984 48.4105
1380.000000 77.118 48.5929
1400.000000 77.118 47.9845
1430.000000 77.197 47.4315
1450.000000 77.230 47.4978
1475.000000 77.333 47.2257
1500.000000 77.392 46.6778
1525.000000 77.421 47.0079
1550.000000 77.472 46.4384
1575.000000 77.519 46.2955
1600.000000 77.553 46.1945
1625.000000 77.607 46.1892
1650.000000 77.660 45.6874
1675.000000 77.723 46.0234
1700.000000 77.814 45.5922
1725.000000 77.886 45.7617
1750.000000 77.923 45.8483
1775.000000 77.938 45.5772
1800.000000 78.023 45.7271
1825.000000 78.086 45.3718
1850.000000 78.109 46.1006
1875.000000 78.257 45.9147
1900.000000 78.354 45.9036
1925.000000 78.369 45.9004
1950.000000 78.402 45.7382
1975.000000 78.557 46.1100
2000.000000 78.631 46.1028
2030.000000 78.755 46.5983
2060.000000 78.842 46.6809
2090.000000 78.995 46.7668
2120.000000 79.103 47.1862
2140.000000 79.282 47.2468
2180.000000 79.487 47.5159
2200.000000 79.635 47.4837
2240.000000 79.937 47.6005
2270.000000 80.137 47.1473
2300.000000 80.404 46.8475
2330.000000 80.679 46.3352
2360.000000 80.904 45.6193
2400.000000 81.228 44.7346
2430.000000 81.440 43.7277
2470.000000 81.720 42.2208
2500.000000 81.949 40.8506
2540.000000 82.217 38.9493
2580.000000 82.443 36.5343
2620.000000 82.671 34.3793
2650.000000 82.758 32.3137
2690.000000 82.910 29.4586
2720.000000 82.947 27.2697
2760.000000 82.938 24.2506
2800.000000 82.800 21.8369
2850.000000 82.675 18.9908
2900.000000 82.462 16.9388
2950.000000 82.259 15.1409
3000.000000 82.093 14.3618
3040.000000 81.991 12.9661
3070.000000 81.896 12.4540
3110.000000 81.793 11.4460
3150.000000 81.715 10.6362
3200.000000 81.613 9.5410
3250.000000 81.475 8.3608
3300.000000 81.363 7.5442
3350.000000 81.245 6.6702
3400.000000 81.077 6.1984
3450.000000 80.923 4.9005
3500.000000 80.809 4.4778
3550.000000 80.676 3.9983
3600.000000 80.498 3.8303
3650.000000 80.382 3.6178
3700.000000 80.246 3.1032
3750.000000 80.162 2.5287
3820.000000 80.012 2.8198
3870.000000 79.900 2.7792
3950.000000 79.711 2.6207
4000.000000 79.571 2.9955
4060.000000 79.548 3.1705
4120.000000 79.515 3.0205
4180.000000 79.496 3.8014
4250.000000 79.350 3.8107
4310.000000 79.373 3.8621
4370.000000 79.365 4.0931
4440.000000 79.366 4.3449
4500.000000 79.356 4.4662
4550.000000 79.328 4.5731
4620.000000 79.411 4.6043
4680.000000 79.448 4.4386
4750.000000 79.399 4.2552
4820.000000 79.457 4.7374
4870.000000 79.527 4.1773
4940.000000 79.552 3.8976
5000.000000 79.573 3.6730
5080.000000 79.647 3.4894
5150.000000 79.669 2.6300
5220.000000 79.681 2.1902
5300.000000 79.689 1.6588
5380.000000 79.769 0.8175
5450.000000 79.723 0.1152
5520.000000 79.708 -0.9586
5600.000000 79.663 -1.5414
5700.000000 79.640 -2.2103
5800.000000 79.580 -3.8163
5900.000000 79.477 -4.5439
6000.000000 79.347 -5.1971
6080.000000 79.311 -6.5314
6150.000000 79.220 -6.9232
6220.000000 79.135 -7.6865
6300.000000 78.989 -8.6693
6400.000000 78.811 -9.4056
6500.000000 78.575 -10.7096
6600.000000 78.292 -11.0908
6700.000000 78.154 -12.2993
6800.000000 77.674 -11.8595
6900.000000 77.443 -11.9778
7000.000000 77.219 -11.3367
7100.000000 76.826 -10.9082
7200.000000 76.564 -10.2655
7300.000000 76.591 -8.9510
7400.000000 76.390 -8.9604
7500.000000 76.351 -8.8173
7620.000000 76.295 -8.2004
7750.000000 76.136 -8.7805
7880.000000 76.026 -8.5886
8000.000000 76.267 -9.3234
8120.000000 75.848 -10.9091
8250.000000 75.439 -12.6943
8380.000000 74.967 -13.9559
8500.000000 74.405 -15.5562
8620.000000 73.669 -14.8785
8750.000000 73.008 -12.8672
8850.000000 72.284 -9.3286
9000.000000 71.936 -5.6327
9120.000000 72.115 0.5078
9250.000000 72.545 3.7007
9380.000000 72.943 3.2128
9500.000000 73.217 1.9464
9620.000000 73.163 -0.1816
9750.000000 72.979 0.0870
9880.000000 72.712 -1.1642
10000.000000 72.577 -2.1314
10150.000000 71.912 -0.0913
10300.000000 71.880 1.6019
10440.000000 71.641 3.4152
10600.000000 71.340 6.2960
10750.000000 71.581 8.0558
10900.000000 71.644 9.4982
11060.000000 72.059 11.0126
11200.000000 72.304 12.2546
11380.000000 72.718 8.8825
11500.000000 72.824 8.4318
11720.000000 73.059 3.7864
11800.000000 73.199 1.7708
12060.000000 72.776 -3.9476
12200.000000 72.463 -8.9781
12410.000000 71.760 -15.2237
12500.000000 71.239 -15.9834
12650.000000 70.872 -19.6806
12800.000000 70.143 -21.8162
13150.000000 67.647 -22.9171
13200.000000 67.043 -23.9781
13400.000000 65.640 -22.6959
13600.000000 65.006 -17.5333
13800.000000 63.493 -11.0432
14000.000000 62.368 -6.5021
14300.000000 61.821 -2.6436
14500.000000 61.811 3.4121
14750.000000 61.527 1.4021
15000.000000 60.292 6.4112
15250.000000 60.584 5.4338
15500.000000 59.410 12.1364
15750.000000 58.071 8.7345
16000.000000 58.104 14.6581
16250.000000 54.228 23.2318
16500.000000 56.434 29.0682
16750.000000 56.746 26.0981
17000.000000 58.250 30.7343
17250.000000 60.703 22.6971
17500.000000 63.364 -37.0347
17750.000000 56.316 -88.2709
18000.000000 48.178 -92.3470
18250.000000 47.595 -131.9275
18500.000000 42.562 -154.4217
18750.000000 46.489 -164.5984
19000.000000 40.445 -179.3128
19250.000000 40.392 160.0775
19500.000000 43.782 144.0588
19750.000000 44.661 86.6118
