* Measurement data measured by REW V5.31.1
* Source: Microphone (USB Sound Device        ), MICROPHONE (Master Volume), R, volume: 0.250
* Format: 256k Log Swept Sine, 1 sweep at -20.0 dBFS with no timing reference
* Dated: Jul 31, 2024 12:49:50 PM
* REW Settings:
*  C-weighting compensation: Off
*  Target level: 75.0 dB
* Note: 
* Measurement: R TSMR MIRAI 001 104
* Smoothing: None
* Frequency Step: 1/48 octave
* Start Frequency: 20.300 Hz
*
* Freq(Hz) SPL(dB) Phase(degrees)
20.299999 121.504 -165.4558
20.600000 121.528 -166.5630
20.900000 121.545 -167.5762
21.200001 121.560 -168.5908
21.400000 121.571 -169.2673
21.799999 121.591 -170.6107
22.000000 121.600 -171.2708
22.400000 121.618 -172.5525
22.700001 121.631 -173.4744
23.000000 121.643 -174.3659
23.299999 121.655 -175.2387
23.600000 121.666 -176.1045
24.000000 121.678 -177.2619
24.299999 121.683 -178.1335
24.700001 121.684 -179.2897
25.000000 121.684 179.8580
25.400000 121.683 178.7493
25.799999 121.684 177.6657
26.200001 121.690 176.5907
26.500000 121.694 175.7828
26.900000 121.697 174.7050
27.200001 121.696 173.9044
27.600000 121.691 172.8612
28.000000 121.683 171.8560
28.500000 121.672 170.6483
29.000000 121.662 169.4688
29.500000 121.654 168.2906
30.000000 121.643 167.1033
30.400000 121.631 166.1542
30.700001 121.621 165.4501
31.100000 121.607 164.5288
31.500000 121.594 163.6276
32.000000 121.581 162.5181
32.500000 121.566 161.4155
33.000000 121.546 160.3304
33.500000 121.521 159.2854
34.000000 121.497 158.2756
34.500000 121.477 157.2570
35.000000 121.457 156.1998
35.500000 121.432 155.1359
36.000000 121.401 154.1320
36.500000 121.372 153.2075
37.000000 121.351 152.3057
37.500000 121.330 151.3636
38.200001 121.286 149.9968
38.700001 121.247 149.0604
39.500000 121.198 147.6482
40.000000 121.176 146.7607
40.599998 121.147 145.6899
41.200001 121.111 144.6634
41.799999 121.076 143.6691
42.500000 121.035 142.4725
43.099998 120.993 141.4231
43.700001 120.946 140.4225
44.400002 120.895 139.3342
45.000000 120.856 138.4150
45.500000 120.824 137.6343
46.200001 120.776 136.5346
46.799999 120.735 135.5995
47.500000 120.688 134.5159
48.200001 120.640 133.4558
48.700001 120.604 132.7234
49.400002 120.553 131.7214
50.000000 120.508 130.8691
50.799999 120.449 129.7355
51.500000 120.400 128.7321
52.200001 120.349 127.7305
53.000000 120.285 126.6563
53.799999 120.225 125.6394
54.500000 120.172 124.7267
55.200001 120.117 123.8002
56.000000 120.056 122.7451
57.000000 119.980 121.4446
58.000000 119.900 120.2545
59.000000 119.821 119.0677
60.000000 119.739 117.8721
60.799999 119.682 116.9162
61.500000 119.631 116.0660
62.200001 119.574 115.2728
63.000000 119.515 114.4225
64.000000 119.441 113.3074
65.000000 119.357 112.2066
66.000000 119.272 111.1164
67.000000 119.188 110.0546
68.000000 119.114 109.0084
69.000000 119.035 108.0285
70.000000 118.959 107.0919
71.000000 118.877 106.0549
72.000000 118.801 105.0674
73.000000 118.737 104.0728
74.000000 118.654 103.1456
75.000000 118.573 102.2953
76.199997 118.486 101.1461
77.500000 118.378 99.9397
78.800003 118.281 98.8397
80.000000 118.190 97.8577
81.199997 118.110 96.8378
82.500000 117.999 95.8012
83.800003 117.918 94.6712
85.000000 117.815 93.7752
86.199997 117.725 92.9687
87.500000 117.633 91.9533
88.500000 117.563 91.0900
90.000000 117.451 90.0957
91.199997 117.363 89.2148
92.500000 117.259 88.3033
93.800003 117.183 87.4000
95.000000 117.103 86.6566
96.199997 117.019 85.8950
97.500000 116.922 84.9447
98.800003 116.833 84.1566
100.000000 116.777 83.4080
101.500000 116.636 82.4673
103.000000 116.574 81.4860
104.400002 116.464 80.9860
106.000000 116.355 79.8063
107.500000 116.268 79.2599
109.000000 116.163 78.2467
110.599998 116.068 77.4021
112.000000 115.978 76.9182
113.800003 115.887 75.4731
115.000000 115.759 74.9940
117.199997 115.649 74.5901
118.000000 115.644 74.3319
120.599998 115.504 72.7274
122.000000 115.437 72.0260
124.099998 115.279 71.1522
125.000000 115.189 70.7385
126.500000 115.157 70.0433
128.000000 114.993 69.4559
131.500000 114.875 68.1796
132.000000 114.840 67.9829
134.000000 114.743 67.2118
136.000000 114.657 66.5646
138.000000 114.547 65.8580
140.000000 114.394 65.4230
143.000000 114.317 64.0981
145.000000 114.203 63.5476
147.500000 114.078 62.8631
150.000000 113.969 62.0593
152.500000 113.890 61.3936
155.000000 113.772 60.7004
157.500000 113.670 59.9171
160.000000 113.565 59.4876
162.500000 113.487 59.0051
165.000000 113.365 58.3022
167.500000 113.277 57.7249
170.000000 113.205 57.1555
172.500000 113.106 56.7302
175.000000 113.017 56.2421
177.500000 112.932 55.7725
180.000000 112.840 55.3379
182.500000 112.771 54.7918
185.000000 112.709 54.3389
187.500000 112.627 54.1246
190.000000 112.562 53.9150
192.500000 112.462 53.4023
195.000000 112.435 52.9035
197.500000 112.335 52.8093
200.000000 112.285 52.3977
203.000000 112.212 52.3124
206.000000 112.213 50.8090
209.000000 112.041 51.2570
212.000000 112.015 51.0198
214.000000 111.948 50.5417
218.000000 111.890 50.5407
220.000000 111.788 50.3048
224.000000 111.751 49.9837
227.000000 111.683 49.4555
230.000000 111.625 49.4970
233.000000 111.556 49.2858
236.000000 111.501 49.0719
240.000000 111.443 48.9016
243.000000 111.399 48.5176
247.000000 111.349 48.3148
250.000000 111.321 48.1276
254.000000 111.277 48.1322
258.000000 111.206 47.9222
262.000000 111.198 47.6337
265.000000 111.140 47.6351
269.000000 111.061 47.7781
272.000000 111.081 47.4255
276.000000 111.045 47.1323
280.000000 110.967 47.2498
285.000000 110.939 46.9911
290.000000 110.898 47.0328
295.000000 110.869 46.8942
300.000000 110.855 46.9700
304.000000 110.776 46.9012
307.000000 110.841 46.9301
311.000000 110.801 46.7703
315.000000 110.764 46.9822
320.000000 110.791 46.8767
325.000000 110.744 47.1187
330.000000 110.716 46.8255
335.000000 110.690 46.7877
340.000000 110.693 46.6678
345.000000 110.708 47.1635
350.000000 110.691 46.9998
355.000000 110.727 46.9828
360.000000 110.666 47.0265
365.000000 110.689 47.0414
370.000000 110.688 47.0989
375.000000 110.687 47.3266
382.000000 110.715 47.3277
387.000000 110.730 47.1104
395.000000 110.751 47.4391
400.000000 110.769 47.7423
406.000000 110.768 47.9408
412.000000 110.825 47.6067
418.000000 110.826 47.7156
425.000000 110.850 47.8408
431.000000 110.842 48.0971
437.000000 110.873 48.3014
444.000000 110.935 48.4120
450.000000 110.900 47.9657
455.000000 110.939 48.1573
462.000000 110.978 48.4308
468.000000 111.013 48.7356
475.000000 111.093 48.6115
482.000000 111.108 49.0054
487.000000 111.097 48.9093
494.000000 111.135 48.8455
500.000000 111.204 49.1368
508.000000 111.222 49.5436
515.000000 111.276 49.1844
522.000000 111.323 49.4090
530.000000 111.361 49.5590
538.000000 111.436 50.0546
545.000000 111.451 49.6477
552.000000 111.483 49.7559
560.000000 111.548 50.0619
570.000000 111.572 50.1272
580.000000 111.672 50.3526
590.000000 111.689 50.4866
600.000000 111.780 50.7035
608.000000 111.796 50.9069
615.000000 111.876 50.5809
622.000000 111.921 51.0674
630.000000 111.968 50.9316
640.000000 112.020 51.2145
650.000000 112.111 51.5750
660.000000 112.180 51.7068
670.000000 112.242 51.5926
680.000000 112.328 51.5107
690.000000 112.368 52.0612
700.000000 112.439 52.1927
710.000000 112.500 52.3275
720.000000 112.591 52.3477
730.000000 112.653 52.4526
740.000000 112.725 52.8223
750.000000 112.788 53.1062
762.000000 112.879 53.0789
775.000000 112.955 53.2654
788.000000 113.043 53.4345
800.000000 113.166 53.7843
812.000000 113.241 53.8549
825.000000 113.357 54.1108
838.000000 113.456 54.4959
850.000000 113.538 54.3830
862.000000 113.662 54.7032
875.000000 113.748 54.6534
885.000000 113.846 54.9321
900.000000 113.961 55.0945
912.000000 114.089 55.1454
925.000000 114.175 55.2739
938.000000 114.283 55.2276
950.000000 114.407 55.4846
962.000000 114.504 55.2728
975.000000 114.617 55.4516
988.000000 114.730 55.4008
1000.000000 114.793 54.8987
1015.000000 114.954 55.1646
1030.000000 115.113 55.1946
1044.000000 115.225 55.0453
1060.000000 115.356 54.7561
1075.000000 115.491 54.7004
1090.000000 115.606 54.5037
1106.000000 115.690 54.0331
1120.000000 115.805 54.0336
1138.000000 115.943 53.5002
1150.000000 116.023 53.3101
1172.000000 116.185 52.9644
1180.000000 116.209 52.7831
1206.000000 116.393 52.1447
1220.000000 116.446 51.8526
1241.000000 116.575 51.2686
1250.000000 116.625 51.1780
1265.000000 116.690 50.6913
1280.000000 116.754 50.4081
1315.000000 116.897 49.6613
1320.000000 116.898 49.5995
1340.000000 116.981 49.2410
1360.000000 117.038 49.0176
1380.000000 117.112 48.5419
1400.000000 117.182 48.1941
1430.000000 117.233 47.7658
1450.000000 117.329 47.4439
1475.000000 117.384 47.2207
1500.000000 117.461 46.7762
1525.000000 117.520 46.5103
1550.000000 117.579 46.2976
1575.000000 117.621 46.0580
1600.000000 117.691 46.0701
1625.000000 117.771 45.8359
1650.000000 117.838 45.8053
1675.000000 117.905 45.6424
1700.000000 117.939 45.4488
1725.000000 118.015 45.2579
1750.000000 118.061 45.1290
1775.000000 118.148 45.2468
1800.000000 118.228 45.0817
1825.000000 118.287 45.1571
1850.000000 118.351 45.0416
1875.000000 118.430 44.9464
1900.000000 118.474 45.0588
1925.000000 118.563 45.0048
1950.000000 118.650 45.0345
1975.000000 118.715 45.0547
2000.000000 118.748 44.9362
2030.000000 118.909 45.1982
2060.000000 119.009 45.4677
2090.000000 119.119 45.5723
2120.000000 119.236 45.9907
2140.000000 119.354 46.1515
2180.000000 119.595 46.5703
2200.000000 119.743 46.6868
2240.000000 120.065 46.8415
2270.000000 120.332 46.7349
2300.000000 120.615 46.3835
2330.000000 120.897 45.6860
2360.000000 121.169 44.8252
2400.000000 121.513 43.4759
2430.000000 121.759 42.1825
2470.000000 122.052 40.1943
2500.000000 122.263 38.5538
2540.000000 122.502 36.0289
2580.000000 122.700 33.2512
2620.000000 122.811 30.2990
2650.000000 122.873 28.1479
2690.000000 122.843 25.2774
2720.000000 122.773 23.3347
2760.000000 122.652 20.9971
2800.000000 122.503 19.3668
2850.000000 122.316 17.6059
2900.000000 122.160 16.1902
2950.000000 122.044 15.2086
3000.000000 121.946 14.2103
3040.000000 121.881 13.3756
3070.000000 121.841 12.7458
3110.000000 121.773 11.8757
3150.000000 121.710 11.0071
3200.000000 121.626 9.9738
3250.000000 121.516 9.0551
3300.000000 121.428 8.2014
3350.000000 121.326 7.4077
3400.000000 121.226 6.6733
3450.000000 121.131 5.9706
3500.000000 121.011 5.2448
3550.000000 120.934 4.5759
3600.000000 120.815 4.2291
3650.000000 120.717 3.5811
3700.000000 120.583 3.2137
3750.000000 120.490 3.0135
3820.000000 120.329 2.4066
3870.000000 120.253 2.4341
3950.000000 120.103 2.2664
4000.000000 120.012 2.1298
4060.000000 119.954 2.2178
4120.000000 119.870 2.2955
4180.000000 119.797 2.4043
4250.000000 119.716 2.4033
4310.000000 119.702 2.6528
4370.000000 119.690 2.8766
4440.000000 119.693 3.0060
4500.000000 119.641 3.0206
4550.000000 119.656 3.1275
4620.000000 119.620 3.3950
4680.000000 119.703 3.2533
4750.000000 119.701 3.0632
4820.000000 119.698 3.1086
4870.000000 119.746 3.1024
4940.000000 119.792 2.9198
5000.000000 119.877 2.6136
5080.000000 119.847 2.5215
5150.000000 119.861 2.2047
5220.000000 119.867 1.7577
5300.000000 119.878 1.3560
5380.000000 119.906 0.8412
5450.000000 119.885 0.4728
5520.000000 119.927 0.1559
5600.000000 119.895 -0.3575
5700.000000 119.869 -0.9698
5800.000000 119.843 -1.3124
5900.000000 119.804 -2.2895
6000.000000 119.772 -2.5237
6080.000000 119.734 -3.4581
6150.000000 119.661 -3.9406
6220.000000 119.601 -4.1858
6300.000000 119.548 -5.0615
6400.000000 119.407 -5.5098
6500.000000 119.228 -5.9717
6600.000000 119.114 -5.8849
6700.000000 118.987 -5.9771
6800.000000 118.921 -5.8066
6900.000000 118.851 -6.2838
7000.000000 118.766 -6.0935
7100.000000 118.839 -5.7302
7200.000000 118.833 -6.7449
7300.000000 118.742 -7.4932
7400.000000 118.684 -7.9629
7500.000000 118.648 -8.6129
7620.000000 118.556 -10.0522
7750.000000 118.469 -11.5908
7880.000000 118.351 -13.4814
8000.000000 118.252 -15.5781
8120.000000 117.971 -18.2771
8250.000000 117.500 -21.0223
8380.000000 117.056 -23.5703
8500.000000 116.343 -25.3909
8620.000000 115.532 -26.9746
8750.000000 114.717 -26.8319
8850.000000 113.973 -25.4111
9000.000000 113.122 -20.4310
9120.000000 112.611 -15.8840
9250.000000 112.543 -11.2889
9380.000000 112.688 -9.3493
9500.000000 112.718 -8.2766
9620.000000 112.590 -9.2551
9750.000000 112.362 -8.4409
9880.000000 112.063 -6.5853
10000.000000 111.815 -5.5594
10150.000000 111.609 -3.6647
10300.000000 111.438 -0.5834
10440.000000 111.272 1.8825
10600.000000 111.270 5.3862
10750.000000 111.348 7.9459
10900.000000 111.494 10.4625
11060.000000 111.904 11.6643
11200.000000 112.110 11.8733
11380.000000 112.487 11.5710
11500.000000 112.683 11.1736
11720.000000 112.889 8.7650
11800.000000 113.100 7.5465
12060.000000 113.049 2.8945
12200.000000 112.841 0.3518
12410.000000 112.428 -3.6516
12500.000000 112.085 -4.8223
12650.000000 111.647 -7.6515
12800.000000 110.836 -10.5907
13150.000000 109.239 -11.2353
13200.000000 108.913 -12.7671
13400.000000 107.823 -12.7777
13600.000000 106.610 -9.6403
13800.000000 105.587 -5.1348
14000.000000 105.046 -3.4578
14300.000000 104.343 4.5494
14500.000000 103.841 8.5422
14750.000000 103.238 11.3451
15000.000000 103.411 15.2919
15250.000000 103.312 17.6553
15500.000000 102.512 15.7070
15750.000000 102.198 16.3664
16000.000000 101.917 17.9260
16250.000000 101.821 16.0457
16500.000000 101.554 17.4138
16750.000000 101.667 18.9347
17000.000000 105.011 12.1460
17250.000000 106.738 -32.5074
17500.000000 101.600 -88.4194
17750.000000 93.355 -123.9988
18000.000000 88.595 -143.0494
18250.000000 81.582 -163.8850
18500.000000 81.899 -174.7589
18750.000000 87.115 176.0422
19000.000000 88.623 156.4001
19250.000000 92.552 156.9670
19500.000000 91.556 141.6484
19750.000000 89.945 130.3726
