* Measurement data measured by REW V5.31.1
* Source: Microphone (USB Sound Device        ), MICROPHONE (Master Volume), R, volume: 0.250
* Format: 256k Log Swept Sine, 1 sweep at -20.0 dBFS with no timing reference
* Dated: Jul 31, 2024 1:19:36 PM
* REW Settings:
*  C-weighting compensation: Off
*  Target level: 75.0 dB
* Note: 
* Measurement: R TSMR MIRAI 111 117
* Smoothing: None
* Frequency Step: 1/48 octave
* Start Frequency: 20.300 Hz
*
* Freq(Hz) SPL(dB) Phase(degrees)
20.299999 86.320 -161.9162
20.600000 86.336 -162.8186
20.900000 86.346 -163.6300
21.200001 86.357 -164.4401
21.400000 86.365 -164.9844
21.799999 86.381 -166.0808
22.000000 86.389 -166.6285
22.400000 86.404 -167.7069
22.700001 86.414 -168.4888
23.000000 86.422 -169.2422
23.299999 86.430 -169.9716
23.600000 86.438 -170.6849
24.000000 86.447 -171.6243
24.299999 86.452 -172.3273
24.700001 86.458 -173.2646
25.000000 86.461 -173.9647
25.400000 86.464 -174.8895
25.799999 86.466 -175.8001
26.200001 86.466 -176.6927
26.500000 86.465 -177.3481
26.900000 86.461 -178.2009
27.200001 86.458 -178.8254
27.600000 86.453 -179.6421
28.000000 86.447 179.5511
28.500000 86.440 178.5482
29.000000 86.431 177.5573
29.500000 86.420 176.5927
30.000000 86.409 175.6587
30.400000 86.400 174.9252
30.700001 86.394 174.3778
31.100000 86.384 173.6495
31.500000 86.372 172.9268
32.000000 86.356 172.0404
32.500000 86.340 171.1766
33.000000 86.324 170.3278
33.500000 86.308 169.4870
34.000000 86.290 168.6563
34.500000 86.268 167.8424
35.000000 86.246 167.0455
35.500000 86.224 166.2589
36.000000 86.202 165.4784
36.500000 86.181 164.7079
37.000000 86.158 163.9546
37.500000 86.136 163.2189
38.200001 86.105 162.2014
38.700001 86.082 161.4708
39.500000 86.043 160.3005
40.000000 86.016 159.5852
40.599998 85.984 158.7558
41.200001 85.951 157.9554
41.799999 85.919 157.1754
42.500000 85.880 156.2803
43.099998 85.848 155.5134
43.700001 85.817 154.7391
44.400002 85.778 153.8395
45.000000 85.742 153.0916
45.500000 85.711 152.4869
46.200001 85.669 151.6523
46.799999 85.633 150.9368
47.500000 85.592 150.1071
48.200001 85.551 149.2956
48.700001 85.522 148.7305
49.400002 85.481 147.9555
50.000000 85.446 147.2964
50.799999 85.397 146.4156
51.500000 85.352 145.6484
52.200001 85.308 144.8949
53.000000 85.259 144.0589
53.799999 85.211 143.2479
54.500000 85.168 142.5530
55.200001 85.122 141.8728
56.000000 85.068 141.0979
57.000000 85.002 140.1005
58.000000 84.937 139.1254
59.000000 84.878 138.1793
60.000000 84.813 137.2709
60.799999 84.762 136.5709
61.500000 84.715 135.9432
62.200001 84.665 135.3319
63.000000 84.611 134.6673
64.000000 84.552 133.7869
65.000000 84.488 132.9091
66.000000 84.426 132.0745
67.000000 84.357 131.2508
68.000000 84.290 130.4830
69.000000 84.229 129.6630
70.000000 84.158 128.8862
71.000000 84.096 128.1570
72.000000 84.031 127.3557
73.000000 83.963 126.6254
74.000000 83.906 125.8823
75.000000 83.836 125.1501
76.199997 83.763 124.3528
77.500000 83.675 123.4107
78.800003 83.597 122.4995
80.000000 83.516 121.6525
81.199997 83.443 120.9088
82.500000 83.362 119.9969
83.800003 83.281 119.1389
85.000000 83.208 118.4355
86.199997 83.133 117.6945
87.500000 83.054 116.9020
88.500000 82.992 116.2776
90.000000 82.897 115.4048
91.199997 82.824 114.6743
92.500000 82.745 113.9234
93.800003 82.670 113.1968
95.000000 82.609 112.4785
96.199997 82.527 111.8655
97.500000 82.447 111.1559
98.800003 82.366 110.4131
100.000000 82.311 109.7714
101.500000 82.209 109.0659
103.000000 82.125 108.2771
104.400002 82.043 107.5999
106.000000 81.950 106.7529
107.500000 81.863 106.0256
109.000000 81.790 105.2846
110.599998 81.694 104.5463
112.000000 81.614 103.9051
113.800003 81.525 103.1411
115.000000 81.458 102.4976
117.199997 81.338 101.5782
118.000000 81.292 101.2482
120.599998 81.149 100.0754
122.000000 81.080 99.4678
124.099998 80.962 98.7007
125.000000 80.927 98.3212
126.500000 80.857 97.6653
128.000000 80.761 97.1339
131.500000 80.596 95.7550
132.000000 80.569 95.5467
134.000000 80.475 94.7977
136.000000 80.370 94.0733
138.000000 80.279 93.3184
140.000000 80.180 92.6740
143.000000 80.037 91.6008
145.000000 79.951 90.8910
147.500000 79.834 90.0791
150.000000 79.712 89.2362
152.500000 79.607 88.3757
155.000000 79.481 87.7026
157.500000 79.402 86.8769
160.000000 79.276 86.1760
162.500000 79.176 85.3589
165.000000 79.081 84.6667
167.500000 78.971 83.9241
170.000000 78.869 83.3606
172.500000 78.775 82.6200
175.000000 78.656 81.9244
177.500000 78.578 81.2217
180.000000 78.468 80.6475
182.500000 78.374 80.0210
185.000000 78.305 79.3976
187.500000 78.212 78.9108
190.000000 78.107 78.3492
192.500000 78.023 77.7126
195.000000 77.931 77.2043
197.500000 77.833 76.6299
200.000000 77.753 76.0474
203.000000 77.659 75.4866
206.000000 77.569 74.8384
209.000000 77.469 74.1987
212.000000 77.369 73.6527
214.000000 77.295 73.1398
218.000000 77.187 72.5448
220.000000 77.118 72.1627
224.000000 77.003 71.4004
227.000000 76.924 70.8234
230.000000 76.832 70.3150
233.000000 76.738 69.9086
236.000000 76.662 69.4195
240.000000 76.555 68.7102
243.000000 76.463 68.3523
247.000000 76.369 67.7672
250.000000 76.284 67.2678
254.000000 76.181 66.7350
258.000000 76.076 66.3658
262.000000 75.994 65.6874
265.000000 75.931 65.2213
269.000000 75.849 64.7508
272.000000 75.750 64.3109
276.000000 75.655 64.0659
280.000000 75.576 63.6268
285.000000 75.473 62.8983
290.000000 75.384 62.4790
295.000000 75.292 62.0244
300.000000 75.192 61.5536
304.000000 75.118 61.1277
307.000000 75.060 60.9950
311.000000 74.980 60.4026
315.000000 74.917 60.3383
320.000000 74.827 59.9241
325.000000 74.754 59.4792
330.000000 74.702 59.0957
335.000000 74.593 58.8031
340.000000 74.536 58.4159
345.000000 74.467 58.0724
350.000000 74.392 57.8471
355.000000 74.322 57.5920
360.000000 74.277 57.1430
365.000000 74.185 57.1235
370.000000 74.128 56.9244
375.000000 74.106 56.5760
382.000000 73.992 56.4136
387.000000 73.954 56.1391
395.000000 73.886 55.8344
400.000000 73.821 55.6872
406.000000 73.777 55.4778
412.000000 73.749 55.4355
418.000000 73.697 55.3081
425.000000 73.626 54.9653
431.000000 73.628 54.7269
437.000000 73.551 54.5984
444.000000 73.494 54.5533
450.000000 73.467 54.5422
455.000000 73.459 54.2340
462.000000 73.402 54.3040
468.000000 73.386 54.1666
475.000000 73.336 54.0574
482.000000 73.342 54.0093
487.000000 73.313 54.0129
494.000000 73.259 53.8692
500.000000 73.253 54.0076
508.000000 73.206 53.8675
515.000000 73.189 53.7887
522.000000 73.204 53.9790
530.000000 73.170 53.6906
538.000000 73.167 53.6748
545.000000 73.156 53.7301
552.000000 73.133 53.8336
560.000000 73.146 53.7663
570.000000 73.134 53.5739
580.000000 73.135 53.8426
590.000000 73.138 53.8477
600.000000 73.121 53.7180
608.000000 73.169 53.9911
615.000000 73.159 54.1075
622.000000 73.159 54.1772
630.000000 73.177 53.9072
640.000000 73.168 54.2619
650.000000 73.214 54.4965
660.000000 73.231 54.4099
670.000000 73.253 54.7663
680.000000 73.250 54.7886
690.000000 73.308 54.9249
700.000000 73.330 54.9872
710.000000 73.365 55.0731
720.000000 73.390 55.3984
730.000000 73.427 55.2900
740.000000 73.450 55.4817
750.000000 73.502 55.3399
762.000000 73.552 55.5480
775.000000 73.576 56.0084
788.000000 73.668 56.0715
800.000000 73.730 56.1729
812.000000 73.755 56.4441
825.000000 73.853 56.6566
838.000000 73.937 56.7457
850.000000 74.000 56.9903
862.000000 74.062 57.1922
875.000000 74.133 57.2852
885.000000 74.207 57.3973
900.000000 74.322 57.7751
912.000000 74.413 57.4742
925.000000 74.529 57.7878
938.000000 74.610 57.7350
950.000000 74.691 57.8940
962.000000 74.795 57.9200
975.000000 74.870 57.9860
988.000000 74.979 57.8728
1000.000000 75.006 57.3669
1015.000000 75.159 57.8503
1030.000000 75.330 57.5686
1044.000000 75.418 57.4527
1060.000000 75.554 57.1729
1075.000000 75.657 57.0353
1090.000000 75.767 56.7476
1106.000000 75.880 56.7848
1120.000000 75.982 56.4687
1138.000000 76.078 56.0102
1150.000000 76.149 55.7255
1172.000000 76.292 55.2765
1180.000000 76.344 55.0796
1206.000000 76.463 54.3877
1220.000000 76.546 54.1470
1241.000000 76.671 53.6505
1250.000000 76.688 53.5178
1265.000000 76.758 53.0259
1280.000000 76.818 52.7173
1315.000000 76.955 51.7902
1320.000000 76.960 51.7947
1340.000000 77.027 51.3143
1360.000000 77.103 50.9501
1380.000000 77.172 50.4083
1400.000000 77.218 50.0891
1430.000000 77.305 49.6609
1450.000000 77.344 49.3120
1475.000000 77.397 48.9944
1500.000000 77.449 48.5064
1525.000000 77.495 48.3674
1550.000000 77.566 48.0313
1575.000000 77.581 47.7635
1600.000000 77.672 47.4347
1625.000000 77.720 47.2159
1650.000000 77.764 47.2117
1675.000000 77.843 46.9999
1700.000000 77.862 46.7682
1725.000000 77.947 46.6954
1750.000000 77.994 46.7241
1775.000000 78.068 46.4235
1800.000000 78.116 46.3286
1825.000000 78.191 46.2372
1850.000000 78.286 46.2761
1875.000000 78.310 46.2314
1900.000000 78.350 45.9364
1925.000000 78.453 45.9397
1950.000000 78.512 45.9035
1975.000000 78.584 46.0509
2000.000000 78.576 45.8276
2030.000000 78.737 46.1632
2060.000000 78.817 46.2100
2090.000000 78.918 46.2513
2120.000000 79.034 46.6089
2140.000000 79.132 46.9040
2180.000000 79.341 47.3695
2200.000000 79.475 47.5824
2240.000000 79.764 47.8085
2270.000000 80.032 47.7545
2300.000000 80.298 47.5585
2330.000000 80.602 46.9908
2360.000000 80.859 46.1770
2400.000000 81.216 44.6841
2430.000000 81.430 43.5721
2470.000000 81.749 41.7263
2500.000000 81.951 40.1296
2540.000000 82.202 37.7256
2580.000000 82.412 34.9846
2620.000000 82.528 32.2094
2650.000000 82.578 30.0021
2690.000000 82.582 27.1301
2720.000000 82.537 25.0092
2760.000000 82.435 22.7254
2800.000000 82.287 20.8765
2850.000000 82.078 19.0771
2900.000000 81.918 17.7596
2950.000000 81.814 16.6481
3000.000000 81.718 15.4487
3040.000000 81.643 14.5430
3070.000000 81.596 14.0939
3110.000000 81.556 13.1839
3150.000000 81.469 12.3210
3200.000000 81.354 11.1227
3250.000000 81.275 10.2099
3300.000000 81.184 9.2858
3350.000000 81.079 8.4630
3400.000000 80.968 7.6750
3450.000000 80.903 6.8754
3500.000000 80.790 6.2515
3550.000000 80.669 5.6652
3600.000000 80.551 4.9093
3650.000000 80.468 4.4200
3700.000000 80.354 4.0376
3750.000000 80.220 3.5452
3820.000000 80.108 3.3660
3870.000000 79.961 3.1432
3950.000000 79.830 2.6759
4000.000000 79.808 2.6218
4060.000000 79.638 2.6737
4120.000000 79.596 2.7911
4180.000000 79.533 2.9933
4250.000000 79.466 2.8702
4310.000000 79.431 2.9645
4370.000000 79.397 3.0176
4440.000000 79.372 3.0773
4500.000000 79.343 3.0483
4550.000000 79.371 3.1263
4620.000000 79.362 3.3407
4680.000000 79.335 3.0758
4750.000000 79.382 2.8446
4820.000000 79.413 2.7487
4870.000000 79.392 2.7654
4940.000000 79.399 2.3606
5000.000000 79.520 2.1882
5080.000000 79.456 1.7339
5150.000000 79.457 1.3720
5220.000000 79.471 0.6975
5300.000000 79.471 0.2554
5380.000000 79.445 -0.3353
5450.000000 79.449 -0.9790
5520.000000 79.414 -1.6056
5600.000000 79.392 -2.1151
5700.000000 79.357 -3.0389
5800.000000 79.240 -3.9265
5900.000000 79.156 -4.7114
6000.000000 79.034 -5.7888
6080.000000 78.962 -5.9956
6150.000000 78.870 -6.7689
6220.000000 78.755 -7.6140
6300.000000 78.588 -8.5297
6400.000000 78.381 -8.9633
6500.000000 78.166 -9.4701
6600.000000 77.823 -9.5788
6700.000000 77.637 -9.3514
6800.000000 77.351 -9.0202
6900.000000 77.254 -8.3850
7000.000000 76.978 -7.6537
7100.000000 77.019 -6.6681
7200.000000 76.952 -6.9347
7300.000000 76.841 -6.8582
7400.000000 76.694 -6.8574
7500.000000 76.672 -6.8292
7620.000000 76.547 -6.7197
7750.000000 76.477 -7.4670
7880.000000 76.360 -8.0505
8000.000000 76.364 -9.2173
8120.000000 76.030 -10.5204
8250.000000 75.805 -12.9105
8380.000000 75.310 -15.0992
8500.000000 74.802 -16.6943
8620.000000 74.080 -17.6088
8750.000000 73.120 -17.3054
8850.000000 72.285 -14.4674
9000.000000 71.309 -7.5164
9120.000000 71.117 -0.2435
9250.000000 71.596 6.9698
9380.000000 72.535 9.1696
9500.000000 73.105 8.1646
9620.000000 73.448 5.6459
9750.000000 73.296 3.5136
9880.000000 73.096 1.7736
10000.000000 72.810 1.2949
10150.000000 72.411 1.4291
10300.000000 71.996 2.5985
10440.000000 71.780 4.6458
10600.000000 71.730 6.6624
10750.000000 71.565 8.5229
10900.000000 71.790 10.1660
11060.000000 72.046 12.0479
11200.000000 72.363 13.2474
11380.000000 72.677 12.8114
11500.000000 72.851 11.5477
11720.000000 73.111 9.0237
11800.000000 73.331 7.4211
12060.000000 73.289 1.6911
12200.000000 73.237 -2.7767
12410.000000 72.538 -9.0600
12500.000000 72.227 -11.1667
12650.000000 71.762 -14.6704
12800.000000 70.815 -17.7789
13150.000000 68.886 -21.7514
13200.000000 68.388 -21.2596
13400.000000 67.026 -20.7814
13600.000000 65.832 -18.4204
13800.000000 64.988 -14.4387
14000.000000 63.890 -11.4939
14300.000000 63.077 -5.2701
14500.000000 62.291 -2.7369
14750.000000 61.580 -1.8611
15000.000000 61.289 3.6145
15250.000000 60.533 3.7230
15500.000000 59.899 6.1001
15750.000000 59.591 3.4409
16000.000000 58.166 2.9236
16250.000000 58.369 8.8958
16500.000000 58.087 9.3641
16750.000000 57.664 16.9664
17000.000000 60.858 5.8413
17250.000000 63.082 -32.1157
17500.000000 58.337 -82.8558
17750.000000 51.150 -104.2386
18000.000000 47.496 -102.7076
18250.000000 43.828 -141.2568
18500.000000 43.867 -155.7862
18750.000000 46.518 -153.3326
19000.000000 45.418 -171.9919
19250.000000 46.834 -160.9381
19500.000000 48.762 173.0762
19750.000000 48.051 155.4866
